 Eloss (eV)  Int (a.u.)
   0.000000    2.000000
   0.001600    2.000000
   0.003201    2.000000
   0.004801    2.000000
   0.006401    2.000000
   0.008002    2.000000
   0.009602    2.000000
   0.011202    2.000000
   0.012803    2.000000
   0.014403    2.000000
   0.016003    2.000000
   0.017604    2.000000
   0.019204    2.000000
   0.020804    2.000000
   0.022404    2.000000
   0.024005    2.000000
   0.025605    2.000000
   0.027205    2.000000
   0.028806    2.000000
   0.030406    2.000000
   0.032006    2.000000
   0.033607    2.000000
   0.035207    2.000000
   0.036807    2.000000
   0.038408    2.000000
   0.040008    2.000000
   0.041608    2.000000
   0.043209    2.000000
   0.044809    2.000000
   0.046409    2.000000
   0.048010    2.000000
   0.049610    2.000000
   0.051210    2.000000
   0.052811    2.000000
   0.054411    2.000000
   0.056011    2.000000
   0.057612    2.000000
   0.059212    2.000000
   0.060812    2.000000
   0.062412    2.000000
   0.064013    2.000000
   0.065613    2.000000
   0.067213    2.000000
   0.068814    2.000000
   0.070414    2.000000
   0.072014    2.000000
   0.073615    2.000000
   0.075215    2.000000
   0.076815    2.000000
   0.078416    2.000000
   0.080016    2.000000
   0.081616    2.000000
   0.083217    2.000000
   0.084817    2.000000
   0.086417    2.000000
   0.088018    2.000000
   0.089618    2.000000
   0.091218    2.000000
   0.092819    2.000000
   0.094419    2.000000
   0.096019    2.000000
   0.097620    2.000000
   0.099220    2.000000
   0.100820    2.000000
   0.102420    2.000000
   0.104021    2.000000
   0.105621    2.000000
   0.107221    2.000000
   0.108822    2.000000
   0.110422    2.000000
   0.112022    2.000000
   0.113623    2.000000
   0.115223    2.000000
   0.116823    2.000000
   0.118424    2.000000
   0.120024    2.000000
   0.121624    2.000000
   0.123225    2.000000
   0.124825    2.000000
   0.126425    2.000000
   0.128026    2.000000
   0.129626    2.000000
   0.131226    2.000000
   0.132827    2.000000
   0.134427    2.000000
   0.136027    2.000000
   0.137628    2.000000
   0.139228    2.000000
   0.140828    2.000000
   0.142428    2.000000
   0.144029    2.000000
   0.145629    2.000000
   0.147229    2.000000
   0.148830    2.000000
   0.150430    2.000000
   0.152030    2.000000
   0.153631    2.000000
   0.155231    2.000000
   0.156831    2.000000
   0.158432    2.000000
   0.160032    2.000000
   0.161632    2.000000
   0.163233    2.000000
   0.164833    2.000000
   0.166433    2.000000
   0.168034    2.000000
   0.169634    2.000000
   0.171234    2.000000
   0.172835    2.000000
   0.174435    2.000000
   0.176035    2.000000
   0.177636    2.000000
   0.179236    2.000000
   0.180836    2.000000
   0.182436    2.000000
   0.184037    2.000000
   0.185637    2.000000
   0.187237    2.000000
   0.188838    2.000000
   0.190438    2.000000
   0.192038    2.000000
   0.193639    2.000000
   0.195239    2.000000
   0.196839    2.000000
   0.198440    2.000000
   0.200040    2.000000
   0.201640    2.000000
   0.203241    2.000000
   0.204841    2.000000
   0.206441    2.000000
   0.208042    2.000000
   0.209642    2.000000
   0.211242    2.000000
   0.212843    2.000000
   0.214443    2.000000
   0.216043    2.000000
   0.217644    2.000000
   0.219244    2.000000
   0.220844    2.000000
   0.222444    2.000000
   0.224045    2.000000
   0.225645    2.000000
   0.227245    2.000000
   0.228846    2.000000
   0.230446    2.000000
   0.232046    2.000000
   0.233647    2.000000
   0.235247    2.000000
   0.236847    2.000000
   0.238448    2.000000
   0.240048    2.000000
   0.241648    2.000000
   0.243249    2.000001
   0.244849    2.000001
   0.246449    2.000001
   0.248050    2.000001
   0.249650    2.000001
   0.251250    2.000001
   0.252851    2.000001
   0.254451    2.000001
   0.256051    2.000001
   0.257652    2.000001
   0.259252    2.000001
   0.260852    2.000001
   0.262452    2.000001
   0.264053    2.000001
   0.265653    2.000001
   0.267253    2.000001
   0.268854    2.000001
   0.270454    2.000001
   0.272054    2.000001
   0.273655    2.000001
   0.275255    2.000001
   0.276855    2.000001
   0.278456    2.000001
   0.280056    2.000001
   0.281656    2.000001
   0.283257    2.000001
   0.284857    2.000001
   0.286457    2.000001
   0.288058    2.000001
   0.289658    2.000001
   0.291258    2.000001
   0.292859    2.000001
   0.294459    2.000001
   0.296059    2.000001
   0.297660    2.000001
   0.299260    2.000001
   0.300860    2.000001
   0.302460    2.000001
   0.304061    2.000001
   0.305661    2.000001
   0.307261    2.000001
   0.308862    2.000001
   0.310462    2.000001
   0.312062    2.000002
   0.313663    2.000002
   0.315263    2.000002
   0.316863    2.000002
   0.318464    2.000002
   0.320064    2.000002
   0.321664    2.000002
   0.323265    2.000002
   0.324865    2.000002
   0.326465    2.000002
   0.328066    2.000002
   0.329666    2.000002
   0.331266    2.000002
   0.332867    2.000002
   0.334467    2.000002
   0.336067    2.000002
   0.337668    2.000002
   0.339268    2.000002
   0.340868    2.000002
   0.342468    2.000002
   0.344069    2.000003
   0.345669    2.000003
   0.347269    2.000003
   0.348870    2.000003
   0.350470    2.000003
   0.352070    2.000003
   0.353671    2.000003
   0.355271    2.000003
   0.356871    2.000003
   0.358472    2.000003
   0.360072    2.000003
   0.361672    2.000003
   0.363273    2.000003
   0.364873    2.000003
   0.366473    2.000004
   0.368074    2.000004
   0.369674    2.000004
   0.371274    2.000004
   0.372875    2.000004
   0.374475    2.000004
   0.376075    2.000004
   0.377676    2.000004
   0.379276    2.000004
   0.380876    2.000004
   0.382476    2.000005
   0.384077    2.000005
   0.385677    2.000005
   0.387277    2.000005
   0.388878    2.000005
   0.390478    2.000005
   0.392078    2.000005
   0.393679    2.000005
   0.395279    2.000006
   0.396879    2.000006
   0.398480    2.000006
   0.400080    2.000006
   0.401680    2.000006
   0.403281    2.000006
   0.404881    2.000006
   0.406481    2.000007
   0.408082    2.000007
   0.409682    2.000007
   0.411282    2.000007
   0.412883    2.000007
   0.414483    2.000007
   0.416083    2.000008
   0.417684    2.000008
   0.419284    2.000008
   0.420884    2.000008
   0.422484    2.000008
   0.424085    2.000009
   0.425685    2.000009
   0.427285    2.000009
   0.428886    2.000009
   0.430486    2.000009
   0.432086    2.000010
   0.433687    2.000010
   0.435287    2.000010
   0.436887    2.000010
   0.438488    2.000011
   0.440088    2.000011
   0.441688    2.000011
   0.443289    2.000011
   0.444889    2.000012
   0.446489    2.000012
   0.448090    2.000012
   0.449690    2.000012
   0.451290    2.000013
   0.452891    2.000013
   0.454491    2.000013
   0.456091    2.000014
   0.457692    2.000014
   0.459292    2.000014
   0.460892    2.000015
   0.462492    2.000015
   0.464093    2.000015
   0.465693    2.000016
   0.467293    2.000016
   0.468894    2.000017
   0.470494    2.000017
   0.472094    2.000017
   0.473695    2.000018
   0.475295    2.000018
   0.476895    2.000019
   0.478496    2.000019
   0.480096    2.000019
   0.481696    2.000020
   0.483297    2.000020
   0.484897    2.000021
   0.486497    2.000021
   0.488098    2.000022
   0.489698    2.000022
   0.491298    2.000023
   0.492899    2.000024
   0.494499    2.000024
   0.496099    2.000025
   0.497700    2.000025
   0.499300    2.000026
   0.500900    2.000026
   0.502501    2.000027
   0.504101    2.000028
   0.505701    2.000028
   0.507301    2.000029
   0.508902    2.000030
   0.510502    2.000031
   0.512102    2.000031
   0.513703    2.000032
   0.515303    2.000033
   0.516903    2.000034
   0.518504    2.000035
   0.520104    2.000036
   0.521704    2.000037
   0.523305    2.000038
   0.524905    2.000039
   0.526505    2.000040
   0.528106    2.000041
   0.529706    2.000043
   0.531306    2.000044
   0.532907    2.000045
   0.534507    2.000047
   0.536107    2.000049
   0.537708    2.000051
   0.539308    2.000053
   0.540908    2.000055
   0.542509    2.000058
   0.544109    2.000060
   0.545709    2.000064
   0.547309    2.000067
   0.548910    2.000071
   0.550510    2.000075
   0.552110    2.000080
   0.553711    2.000085
   0.555311    2.000091
   0.556911    2.000098
   0.558512    2.000106
   0.560112    2.000114
   0.561712    2.000124
   0.563313    2.000136
   0.564913    2.000148
   0.566513    2.000163
   0.568114    2.000179
   0.569714    2.000198
   0.571314    2.000219
   0.572915    2.000243
   0.574515    2.000271
   0.576115    2.000303
   0.577716    2.000338
   0.579316    2.000379
   0.580916    2.000425
   0.582517    2.000478
   0.584117    2.000538
   0.585717    2.000606
   0.587317    2.000684
   0.588918    2.000771
   0.590518    2.000871
   0.592118    2.000984
   0.593719    2.001113
   0.595319    2.001258
   0.596919    2.001423
   0.598520    2.001609
   0.600120    2.001819
   0.601720    2.002057
   0.603321    2.002326
   0.604921    2.002629
   0.606521    2.002971
   0.608122    2.003356
   0.609722    2.003790
   0.611322    2.004278
   0.612923    2.004826
   0.614523    2.005442
   0.616123    2.006133
   0.617724    2.006909
   0.619324    2.007778
   0.620924    2.008751
   0.622525    2.009839
   0.624125    2.011056
   0.625725    2.012415
   0.627325    2.013932
   0.628926    2.015624
   0.630526    2.017510
   0.632126    2.019608
   0.633727    2.021943
   0.635327    2.024539
   0.636927    2.027421
   0.638528    2.030620
   0.640128    2.034166
   0.641728    2.038095
   0.643329    2.042443
   0.644929    2.047253
   0.646529    2.052568
   0.648130    2.058436
   0.649730    2.064909
   0.651330    2.072045
   0.652931    2.079904
   0.654531    2.088552
   0.656131    2.098059
   0.657732    2.108504
   0.659332    2.119969
   0.660932    2.132541
   0.662533    2.146318
   0.664133    2.161401
   0.665733    2.177899
   0.667333    2.195932
   0.668934    2.215624
   0.670534    2.237110
   0.672134    2.260533
   0.673735    2.286046
   0.675335    2.313813
   0.676935    2.344005
   0.678536    2.376808
   0.680136    2.412417
   0.681736    2.451038
   0.683337    2.492891
   0.684937    2.538207
   0.686537    2.587231
   0.688138    2.640221
   0.689738    2.697449
   0.691338    2.759201
   0.692939    2.825778
   0.694539    2.897496
   0.696139    2.974685
   0.697740    3.057693
   0.699340    3.146880
   0.700940    3.242627
   0.702541    3.345327
   0.704141    3.455392
   0.705741    3.573249
   0.707341    3.699343
   0.708942    3.834134
   0.710542    3.978099
   0.712142    4.131734
   0.713743    4.295547
   0.715343    4.470065
   0.716943    4.655830
   0.718544    4.853400
   0.720144    5.063347
   0.721744    5.286258
   0.723345    5.522735
   0.724945    5.773391
   0.726545    6.038853
   0.728146    6.319761
   0.729746    6.616764
   0.731346    6.930521
   0.732947    7.261702
   0.734547    7.610982
   0.736147    7.979046
   0.737748    8.366582
   0.739348    8.774283
   0.740948    9.202845
   0.742549    9.652965
   0.744149   10.125340
   0.745749   10.620667
   0.747349   11.139637
   0.748950   11.682938
   0.750550   12.251251
   0.752150   12.845251
   0.753751   13.465600
   0.755351   14.112951
   0.756951   14.787942
   0.758552   15.491199
   0.760152   16.223328
   0.761752   16.984920
   0.763353   17.776544
   0.764953   18.598750
   0.766553   19.452063
   0.768154   20.336985
   0.769754   21.253991
   0.771354   22.203530
   0.772955   23.186023
   0.774555   24.201862
   0.776155   25.251405
   0.777756   26.334983
   0.779356   27.452893
   0.780956   28.605398
   0.782557   29.792727
   0.784157   31.015078
   0.785757   32.272612
   0.787357   33.565454
   0.788958   34.893697
   0.790558   36.257397
   0.792158   37.656577
   0.793759   39.091224
   0.795359   40.561292
   0.796959   42.066700
   0.798560   43.607336
   0.800160   45.183055
   0.801760   46.793679
   0.803361   48.439002
   0.804961   50.118788
   0.806561   51.832771
   0.808162   53.580660
   0.809762   55.362136
   0.811362   57.176857
   0.812963   59.024456
   0.814563   60.904545
   0.816163   62.816715
   0.817764   64.760535
   0.819364   66.735560
   0.820964   68.741323
   0.822565   70.777346
   0.824165   72.843131
   0.825765   74.938171
   0.827365   77.061942
   0.828966   79.213911
   0.830566   81.393533
   0.832166   83.600252
   0.833767   85.833501
   0.835367   88.092706
   0.836967   90.377282
   0.838568   92.686634
   0.840168   95.020159
   0.841768   97.377244
   0.843369   99.757268
   0.844969  102.159596
   0.846569  104.583587
   0.848170  107.028584
   0.849770  109.493922
   0.851370  111.978921
   0.852971  114.482885
   0.854571  117.005105
   0.856171  119.544856
   0.857772  122.101392
   0.859372  124.673952
   0.860972  127.261750
   0.862573  129.863981
   0.864173  132.479816
   0.865773  135.108400
   0.867373  137.748855
   0.868974  140.400271
   0.870574  143.061714
   0.872174  145.732218
   0.873775  148.410785
   0.875375  151.096388
   0.876975  153.787966
   0.878576  156.484427
   0.880176  159.184643
   0.881776  161.887456
   0.883377  164.591673
   0.884977  167.296068
   0.886577  169.999383
   0.888178  172.700329
   0.889778  175.397586
   0.891378  178.089806
   0.892979  180.775612
   0.894579  183.453604
   0.896179  186.122356
   0.897780  188.780425
   0.899380  191.426347
   0.900980  194.058644
   0.902581  196.675827
   0.904181  199.276399
   0.905781  201.858859
   0.907381  204.421705
   0.908982  206.963440
   0.910582  209.482575
   0.912182  211.977635
   0.913783  214.447161
   0.915383  216.889719
   0.916983  219.303899
   0.918584  221.688328
   0.920184  224.041666
   0.921784  226.362618
   0.923385  228.649938
   0.924985  230.902427
   0.926585  233.118949
   0.928186  235.298427
   0.929786  237.439851
   0.931386  239.542281
   0.932987  241.604852
   0.934587  243.626781
   0.936187  245.607363
   0.937788  247.545981
   0.939388  249.442108
   0.940988  251.295306
   0.942589  253.105234
   0.944189  254.871643
   0.945789  256.594383
   0.947389  258.273404
   0.948990  259.908753
   0.950590  261.500575
   0.952190  263.049117
   0.953791  264.554721
   0.955391  266.017827
   0.956991  267.438971
   0.958592  268.818781
   0.960192  270.157975
   0.961792  271.457358
   0.963393  272.717820
   0.964993  273.940329
   0.966593  275.125929
   0.968194  276.275735
   0.969794  277.390925
   0.971394  278.472739
   0.972995  279.522470
   0.974595  280.541457
   0.976195  281.531081
   0.977796  282.492758
   0.979396  283.427929
   0.980996  284.338057
   0.982597  285.224615
   0.984197  286.089084
   0.985797  286.932941
   0.987397  287.757651
   0.988998  288.564665
   0.990598  289.355406
   0.992198  290.131264
   0.993799  290.893589
   0.995399  291.643683
   0.996999  292.382794
   0.998600  293.112106
   1.000200  293.832735
   1.001800  294.545722
   1.003401  295.252027
   1.005001  295.952520
   1.006601  296.647981
   1.008202  297.339090
   1.009802  298.026426
   1.011402  298.710459
   1.013003  299.391548
   1.014603  300.069939
   1.016203  300.745761
   1.017804  301.419020
   1.019404  302.089605
   1.021004  302.757277
   1.022605  303.421678
   1.024205  304.082323
   1.025805  304.738603
   1.027405  305.389786
   1.029006  306.035019
   1.030606  306.673328
   1.032206  307.303620
   1.033807  307.924690
   1.035407  308.535218
   1.037007  309.133778
   1.038608  309.718840
   1.040208  310.288774
   1.041808  310.841858
   1.043409  311.376280
   1.045009  311.890146
   1.046609  312.381487
   1.048210  312.848264
   1.049810  313.288375
   1.051410  313.699665
   1.053011  314.079928
   1.054611  314.426921
   1.056211  314.738366
   1.057812  315.011965
   1.059412  315.245400
   1.061012  315.436349
   1.062613  315.582487
   1.064213  315.681502
   1.065813  315.731099
   1.067413  315.729007
   1.069014  315.672991
   1.070614  315.560858
   1.072214  315.390468
   1.073815  315.159736
   1.075415  314.866648
   1.077015  314.509260
   1.078616  314.085713
   1.080216  313.594236
   1.081816  313.033153
   1.083417  312.400891
   1.085017  311.695986
   1.086617  310.917087
   1.088218  310.062966
   1.089818  309.132517
   1.091418  308.124768
   1.093019  307.038879
   1.094619  305.874150
   1.096219  304.630023
   1.097820  303.306086
   1.099420  301.902074
   1.101020  300.417875
   1.102621  298.853528
   1.104221  297.209224
   1.105821  295.485313
   1.107421  293.682296
   1.109022  291.800832
   1.110622  289.841733
   1.112222  287.805965
   1.113823  285.694649
   1.115423  283.509052
   1.117023  281.250592
   1.118624  278.920833
   1.120224  276.521480
   1.121824  274.054378
   1.123425  271.521506
   1.125025  268.924974
   1.126625  266.267017
   1.128226  263.549992
   1.129826  260.776369
   1.131426  257.948729
   1.133027  255.069757
   1.134627  252.142231
   1.136227  249.169023
   1.137828  246.153085
   1.139428  243.097446
   1.141028  240.005201
   1.142629  236.879508
   1.144229  233.723576
   1.145829  230.540656
   1.147429  227.334039
   1.149030  224.107038
   1.150630  220.862990
   1.152230  217.605239
   1.153831  214.337132
   1.155431  211.062007
   1.157031  207.783187
   1.158632  204.503972
   1.160232  201.227626
   1.161832  197.957373
   1.163433  194.696385
   1.165033  191.447776
   1.166633  188.214595
   1.168234  184.999813
   1.169834  181.806320
   1.171434  178.636916
   1.173035  175.494302
   1.174635  172.381075
   1.176235  169.299722
   1.177836  166.252612
   1.179436  163.241990
   1.181036  160.269973
   1.182637  157.338543
   1.184237  154.449544
   1.185837  151.604679
   1.187437  148.805501
   1.189038  146.053418
   1.190638  143.349683
   1.192238  140.695396
   1.193839  138.091501
   1.195439  135.538787
   1.197039  133.037884
   1.198640  130.589269
   1.200240  128.193259
   1.201840  125.850023
   1.203441  123.559572
   1.205041  121.321772
   1.206641  119.136342
   1.208242  117.002858
   1.209842  114.920759
   1.211442  112.889351
   1.213043  110.907813
   1.214643  108.975203
   1.216243  107.090462
   1.217844  105.252426
   1.219444  103.459827
   1.221044  101.711307
   1.222645  100.005419
   1.224245   98.340644
   1.225845   96.715389
   1.227445   95.128006
   1.229046   93.576795
   1.230646   92.060013
   1.232246   90.575887
   1.233847   89.122618
   1.235447   87.698395
   1.237047   86.301402
   1.238648   84.929826
   1.240248   83.581867
   1.241848   82.255748
   1.243449   80.949719
   1.245049   79.662071
   1.246649   78.391139
   1.248250   77.135310
   1.249850   75.893035
   1.251450   74.662827
   1.253051   73.443274
   1.254651   72.233042
   1.256251   71.030881
   1.257852   69.835625
   1.259452   68.646205
   1.261052   67.461641
   1.262653   66.281055
   1.264253   65.103666
   1.265853   63.928795
   1.267453   62.755866
   1.269054   61.584403
   1.270654   60.414033
   1.272254   59.244486
   1.273855   58.075588
   1.275455   56.907266
   1.277055   55.739542
   1.278656   54.572528
   1.280256   53.406428
   1.281856   52.241529
   1.283457   51.078200
   1.285057   49.916886
   1.286657   48.758105
   1.288258   47.602438
   1.289858   46.450530
   1.291458   45.303081
   1.293059   44.160839
   1.294659   43.024597
   1.296259   41.895186
   1.297860   40.773468
   1.299460   39.660331
   1.301060   38.556683
   1.302661   37.463447
   1.304261   36.381553
   1.305861   35.311933
   1.307461   34.255520
   1.309062   33.213236
   1.310662   32.185990
   1.312262   31.174675
   1.313863   30.180161
   1.315463   29.203294
   1.317063   28.244888
   1.318664   27.305723
   1.320264   26.386545
   1.321864   25.488058
   1.323465   24.610928
   1.325065   23.755772
   1.326665   22.923165
   1.328266   22.113635
   1.329866   21.327660
   1.331466   20.565670
   1.333067   19.828045
   1.334667   19.115119
   1.336267   18.427172
   1.337868   17.764438
   1.339468   17.127104
   1.341068   16.515307
   1.342669   15.929142
   1.344269   15.368657
   1.345869   14.833859
   1.347469   14.324714
   1.349070   13.841148
   1.350670   13.383053
   1.352270   12.950283
   1.353871   12.542664
   1.355471   12.159990
   1.357071   11.802027
   1.358672   11.468518
   1.360272   11.159182
   1.361872   10.873721
   1.363473   10.611816
   1.365073   10.373136
   1.366673   10.157336
   1.368274    9.964062
   1.369874    9.792951
   1.371474    9.643635
   1.373075    9.515743
   1.374675    9.408900
   1.376275    9.322735
   1.377876    9.256876
   1.379476    9.210956
   1.381076    9.184614
   1.382677    9.177495
   1.384277    9.189252
   1.385877    9.219547
   1.387477    9.268054
   1.389078    9.334455
   1.390678    9.418448
   1.392278    9.519741
   1.393879    9.638055
   1.395479    9.773126
   1.397079    9.924705
   1.398680   10.092555
   1.400280   10.276454
   1.401880   10.476195
   1.403481   10.691585
   1.405081   10.922446
   1.406681   11.168613
   1.408282   11.429934
   1.409882   11.706273
   1.411482   11.997504
   1.413083   12.303515
   1.414683   12.624206
   1.416283   12.959486
   1.417884   13.309278
   1.419484   13.673513
   1.421084   14.052130
   1.422685   14.445079
   1.424285   14.852316
   1.425885   15.273806
   1.427485   15.709518
   1.429086   16.159427
   1.430686   16.623514
   1.432286   17.101763
   1.433887   17.594161
   1.435487   18.100696
   1.437087   18.621361
   1.438688   19.156146
   1.440288   19.705044
   1.441888   20.268046
   1.443489   20.845140
   1.445089   21.436316
   1.446689   22.041557
   1.448290   22.660845
   1.449890   23.294158
   1.451490   23.941468
   1.453091   24.602742
   1.454691   25.277944
   1.456291   25.967028
   1.457892   26.669942
   1.459492   27.386630
   1.461092   28.117024
   1.462693   28.861051
   1.464293   29.618629
   1.465893   30.389665
   1.467493   31.174060
   1.469094   31.971704
   1.470694   32.782478
   1.472294   33.606253
   1.473895   34.442890
   1.475495   35.292240
   1.477095   36.154143
   1.478696   37.028429
   1.480296   37.914919
   1.481896   38.813420
   1.483497   39.723732
   1.485097   40.645643
   1.486697   41.578930
   1.488298   42.523360
   1.489898   43.478690
   1.491498   44.444666
   1.493099   45.421025
   1.494699   46.407493
   1.496299   47.403786
   1.497900   48.409611
   1.499500   49.424666
   1.501100   50.448639
   1.502701   51.481209
   1.504301   52.522048
   1.505901   53.570818
   1.507502   54.627173
   1.509102   55.690760
   1.510702   56.761219
   1.512302   57.838182
   1.513903   58.921275
   1.515503   60.010117
   1.517103   61.104321
   1.518704   62.203497
   1.520304   63.307246
   1.521904   64.415167
   1.523505   65.526854
   1.525105   66.641897
   1.526705   67.759882
   1.528306   68.880393
   1.529906   70.003010
   1.531506   71.127312
   1.533107   72.252875
   1.534707   73.379275
   1.536307   74.506086
   1.537908   75.632881
   1.539508   76.759233
   1.541108   77.884716
   1.542709   79.008903
   1.544309   80.131370
   1.545909   81.251693
   1.547510   82.369448
   1.549110   83.484216
   1.550710   84.595577
   1.552310   85.703117
   1.553911   86.806422
   1.555511   87.905082
   1.557111   88.998691
   1.558712   90.086845
   1.560312   91.169147
   1.561912   92.245200
   1.563513   93.314614
   1.565113   94.377003
   1.566713   95.431984
   1.568314   96.479182
   1.569914   97.518223
   1.571514   98.548741
   1.573115   99.570373
   1.574715  100.582764
   1.576315  101.585560
   1.577916  102.578417
   1.579516  103.560992
   1.581116  104.532951
   1.582717  105.493963
   1.584317  106.443704
   1.585917  107.381852
   1.587518  108.308096
   1.589118  109.222124
   1.590718  110.123634
   1.592318  111.012327
   1.593919  111.887909
   1.595519  112.750091
   1.597119  113.598590
   1.598720  114.433127
   1.600320  115.253427
   1.601920  116.059220
   1.603521  116.850243
   1.605121  117.626233
   1.606721  118.386934
   1.608322  119.132094
   1.609922  119.861464
   1.611522  120.574801
   1.613123  121.271863
   1.614723  121.952414
   1.616323  122.616221
   1.617924  123.263055
   1.619524  123.892689
   1.621124  124.504900
   1.622725  125.099471
   1.624325  125.676184
   1.625925  126.234828
   1.627526  126.775193
   1.629126  127.297074
   1.630726  127.800267
   1.632326  128.284572
   1.633927  128.749795
   1.635527  129.195742
   1.637127  129.622224
   1.638728  130.029055
   1.640328  130.416051
   1.641928  130.783036
   1.643529  131.129832
   1.645129  131.456271
   1.646729  131.762183
   1.648330  132.047406
   1.649930  132.311783
   1.651530  132.555158
   1.653131  132.777383
   1.654731  132.978312
   1.656331  133.157808
   1.657932  133.315737
   1.659532  133.451970
   1.661132  133.566385
   1.662733  133.658868
   1.664333  133.729308
   1.665933  133.777603
   1.667534  133.803659
   1.669134  133.807386
   1.670734  133.788705
   1.672334  133.747544
   1.673935  133.683840
   1.675535  133.597536
   1.677135  133.488587
   1.678736  133.356956
   1.680336  133.202617
   1.681936  133.025552
   1.683537  132.825754
   1.685137  132.603227
   1.686737  132.357986
   1.688338  132.090057
   1.689938  131.799476
   1.691538  131.486294
   1.693139  131.150572
   1.694739  130.792382
   1.696339  130.411811
   1.697940  130.008957
   1.699540  129.583933
   1.701140  129.136862
   1.702741  128.667884
   1.704341  128.177149
   1.705941  127.664823
   1.707542  127.131085
   1.709142  126.576127
   1.710742  126.000157
   1.712342  125.403396
   1.713943  124.786076
   1.715543  124.148449
   1.717143  123.490776
   1.718744  122.813333
   1.720344  122.116412
   1.721944  121.400316
   1.723545  120.665365
   1.725145  119.911888
   1.726745  119.140232
   1.728346  118.350753
   1.729946  117.543824
   1.731546  116.719829
   1.733147  115.879162
   1.734747  115.022234
   1.736347  114.149464
   1.737948  113.261285
   1.739548  112.358139
   1.741148  111.440480
   1.742749  110.508773
   1.744349  109.563493
   1.745949  108.605123
   1.747550  107.634156
   1.749150  106.651095
   1.750750  105.656448
   1.752350  104.650734
   1.753951  103.634478
   1.755551  102.608211
   1.757151  101.572470
   1.758752  100.527798
   1.760352   99.474743
   1.761952   98.413858
   1.763553   97.345697
   1.765153   96.270822
   1.766753   95.189792
   1.768354   94.103173
   1.769954   93.011529
   1.771554   91.915426
   1.773155   90.815431
   1.774755   89.712109
   1.776355   88.606025
   1.777956   87.497742
   1.779556   86.387821
   1.781156   85.276820
   1.782757   84.165294
   1.784357   83.053793
   1.785957   81.942864
   1.787558   80.833048
   1.789158   79.724881
   1.790758   78.618891
   1.792358   77.515602
   1.793959   76.415529
   1.795559   75.319180
   1.797159   74.227054
   1.798760   73.139643
   1.800360   72.057429
   1.801960   70.980884
   1.803561   69.910470
   1.805161   68.846641
   1.806761   67.789838
   1.808362   66.740492
   1.809962   65.699021
   1.811562   64.665835
   1.813163   63.641329
   1.814763   62.625886
   1.816363   61.619878
   1.817964   60.623663
   1.819564   59.637588
   1.821164   58.661984
   1.822765   57.697172
   1.824365   56.743458
   1.825965   55.801133
   1.827566   54.870479
   1.829166   53.951760
   1.830766   53.045228
   1.832366   52.151121
   1.833967   51.269664
   1.835567   50.401067
   1.837167   49.545528
   1.838768   48.703231
   1.840368   47.874344
   1.841968   47.059026
   1.843569   46.257417
   1.845169   45.469649
   1.846769   44.695838
   1.848370   43.936088
   1.849970   43.190489
   1.851570   42.459120
   1.853171   41.742047
   1.854771   41.039323
   1.856371   40.350989
   1.857972   39.677076
   1.859572   39.017601
   1.861172   38.372572
   1.862773   37.741984
   1.864373   37.125823
   1.865973   36.524063
   1.867574   35.936670
   1.869174   35.363597
   1.870774   34.804790
   1.872374   34.260184
   1.873975   33.729707
   1.875575   33.213277
   1.877175   32.710803
   1.878776   32.222188
   1.880376   31.747326
   1.881976   31.286105
   1.883577   30.838403
   1.885177   30.404094
   1.886777   29.983046
   1.888378   29.575119
   1.889978   29.180168
   1.891578   28.798044
   1.893179   28.428590
   1.894779   28.071649
   1.896379   27.727054
   1.897980   27.394638
   1.899580   27.074228
   1.901180   26.765649
   1.902781   26.468722
   1.904381   26.183266
   1.905981   25.909096
   1.907582   25.646025
   1.909182   25.393866
   1.910782   25.152426
   1.912382   24.921516
   1.913983   24.700940
   1.915583   24.490506
   1.917183   24.290019
   1.918784   24.099282
   1.920384   23.918100
   1.921984   23.746278
   1.923585   23.583619
   1.925185   23.429929
   1.926785   23.285012
   1.928386   23.148675
   1.929986   23.020724
   1.931586   22.900967
   1.933187   22.789213
   1.934787   22.685272
   1.936387   22.588958
   1.937988   22.500082
   1.939588   22.418462
   1.941188   22.343913
   1.942789   22.276257
   1.944389   22.215313
   1.945989   22.160907
   1.947590   22.112864
   1.949190   22.071014
   1.950790   22.035186
   1.952390   22.005215
   1.953991   21.980938
   1.955591   21.962193
   1.957191   21.948822
   1.958792   21.940671
   1.960392   21.937586
   1.961992   21.939418
   1.963593   21.946020
   1.965193   21.957250
   1.966793   21.972965
   1.968394   21.993029
   1.969994   22.017307
   1.971594   22.045666
   1.973195   22.077979
   1.974795   22.114119
   1.976395   22.153965
   1.977996   22.197395
   1.979596   22.244293
   1.981196   22.294546
   1.982797   22.348043
   1.984397   22.404675
   1.985997   22.464338
   1.987598   22.526929
   1.989198   22.592348
   1.990798   22.660500
   1.992398   22.731290
   1.993999   22.804627
   1.995599   22.880422
   1.997199   22.958589
   1.998800   23.039046
   2.000400   23.121711
   2.002000   23.206506
   2.003601   23.293355
   2.005201   23.382184
   2.006801   23.472923
   2.008402   23.565502
   2.010002   23.659856
   2.011602   23.755918
   2.013203   23.853629
   2.014803   23.952926
   2.016403   24.053752
   2.018004   24.156051
   2.019604   24.259768
   2.021204   24.364851
   2.022805   24.471251
   2.024405   24.578917
   2.026005   24.687804
   2.027606   24.797865
   2.029206   24.909057
   2.030806   25.021338
   2.032406   25.134668
   2.034007   25.249007
   2.035607   25.364318
   2.037207   25.480564
   2.038808   25.597712
   2.040408   25.715726
   2.042008   25.834575
   2.043609   25.954228
   2.045209   26.074655
   2.046809   26.195827
   2.048410   26.317716
   2.050010   26.440295
   2.051610   26.563540
   2.053211   26.687425
   2.054811   26.811927
   2.056411   26.937022
   2.058012   27.062689
   2.059612   27.188907
   2.061212   27.315654
   2.062813   27.442913
   2.064413   27.570663
   2.066013   27.698887
   2.067614   27.827567
   2.069214   27.956686
   2.070814   28.086228
   2.072414   28.216177
   2.074015   28.346518
   2.075615   28.477238
   2.077215   28.608320
   2.078816   28.739753
   2.080416   28.871523
   2.082016   29.003617
   2.083617   29.136022
   2.085217   29.268728
   2.086817   29.401723
   2.088418   29.534995
   2.090018   29.668535
   2.091618   29.802330
   2.093219   29.936372
   2.094819   30.070650
   2.096419   30.205155
   2.098020   30.339878
   2.099620   30.474809
   2.101220   30.609940
   2.102821   30.745263
   2.104421   30.880768
   2.106021   31.016447
   2.107622   31.152294
   2.109222   31.288299
   2.110822   31.424455
   2.112422   31.560756
   2.114023   31.697192
   2.115623   31.833758
   2.117223   31.970445
   2.118824   32.107248
   2.120424   32.244160
   2.122024   32.381172
   2.123625   32.518280
   2.125225   32.655476
   2.126825   32.792754
   2.128426   32.930107
   2.130026   33.067530
   2.131626   33.205016
   2.133227   33.342559
   2.134827   33.480152
   2.136427   33.617790
   2.138028   33.755466
   2.139628   33.893176
   2.141228   34.030912
   2.142829   34.168669
   2.144429   34.306441
   2.146029   34.444222
   2.147630   34.582007
   2.149230   34.719790
   2.150830   34.857564
   2.152430   34.995325
   2.154031   35.133066
   2.155631   35.270782
   2.157231   35.408468
   2.158832   35.546117
   2.160432   35.683724
   2.162032   35.821284
   2.163633   35.958790
   2.165233   36.096237
   2.166833   36.233620
   2.168434   36.370933
   2.170034   36.508170
   2.171634   36.645326
   2.173235   36.782395
   2.174835   36.919372
   2.176435   37.056251
   2.178036   37.193026
   2.179636   37.329692
   2.181236   37.466243
   2.182837   37.602674
   2.184437   37.738979
   2.186037   37.875152
   2.187638   38.011188
   2.189238   38.147081
   2.190838   38.282826
   2.192438   38.418417
   2.194039   38.553848
   2.195639   38.689114
   2.197239   38.824210
   2.198840   38.959128
   2.200440   39.093865
   2.202040   39.228413
   2.203641   39.362768
   2.205241   39.496924
   2.206841   39.630875
   2.208442   39.764616
   2.210042   39.898140
   2.211642   40.031443
   2.213243   40.164518
   2.214843   40.297360
   2.216443   40.429963
   2.218044   40.562322
   2.219644   40.694430
   2.221244   40.826283
   2.222845   40.957873
   2.224445   41.089196
   2.226045   41.220247
   2.227646   41.351018
   2.229246   41.481505
   2.230846   41.611702
   2.232446   41.741602
   2.234047   41.871201
   2.235647   42.000493
   2.237247   42.129471
   2.238848   42.258131
   2.240448   42.386466
   2.242048   42.514471
   2.243649   42.642140
   2.245249   42.769468
   2.246849   42.896448
   2.248450   43.023074
   2.250050   43.149342
   2.251650   43.275246
   2.253251   43.400779
   2.254851   43.525936
   2.256451   43.650712
   2.258052   43.775101
   2.259652   43.899096
   2.261252   44.022693
   2.262853   44.145885
   2.264453   44.268668
   2.266053   44.391035
   2.267654   44.512980
   2.269254   44.634499
   2.270854   44.755585
   2.272454   44.876233
   2.274055   44.996437
   2.275655   45.116191
   2.277255   45.235491
   2.278856   45.354329
   2.280456   45.472702
   2.282056   45.590603
   2.283657   45.708027
   2.285257   45.824967
   2.286857   45.941420
   2.288458   46.057378
   2.290058   46.172837
   2.291658   46.287791
   2.293259   46.402235
   2.294859   46.516163
   2.296459   46.629570
   2.298060   46.742450
   2.299660   46.854798
   2.301260   46.966608
   2.302861   47.077875
   2.304461   47.188595
   2.306061   47.298760
   2.307662   47.408367
   2.309262   47.517409
   2.310862   47.625882
   2.312462   47.733780
   2.314063   47.841098
   2.315663   47.947831
   2.317263   48.053973
   2.318864   48.159520
   2.320464   48.264466
   2.322064   48.368806
   2.323665   48.472535
   2.325265   48.575647
   2.326865   48.678139
   2.328466   48.780004
   2.330066   48.881238
   2.331666   48.981835
   2.333267   49.081792
   2.334867   49.181102
   2.336467   49.279761
   2.338068   49.377764
   2.339668   49.475106
   2.341268   49.571783
   2.342869   49.667789
   2.344469   49.763119
   2.346069   49.857770
   2.347670   49.951736
   2.349270   50.045012
   2.350870   50.137595
   2.352470   50.229478
   2.354071   50.320659
   2.355671   50.411131
   2.357271   50.500891
   2.358872   50.589934
   2.360472   50.678256
   2.362072   50.765852
   2.363673   50.852718
   2.365273   50.938849
   2.366873   51.024241
   2.368474   51.108890
   2.370074   51.192792
   2.371674   51.275942
   2.373275   51.358336
   2.374875   51.439970
   2.376475   51.520840
   2.378076   51.600942
   2.379676   51.680272
   2.381276   51.758825
   2.382877   51.836598
   2.384477   51.913588
   2.386077   51.989789
   2.387678   52.065198
   2.389278   52.139812
   2.390878   52.213626
   2.392478   52.286637
   2.394079   52.358841
   2.395679   52.430235
   2.397279   52.500815
   2.398880   52.570578
   2.400480   52.639519
   2.402080   52.707636
   2.403681   52.774925
   2.405281   52.841382
   2.406881   52.907005
   2.408482   52.971790
   2.410082   53.035734
   2.411682   53.098833
   2.413283   53.161085
   2.414883   53.222486
   2.416483   53.283034
   2.418084   53.342725
   2.419684   53.401556
   2.421284   53.459525
   2.422885   53.516628
   2.424485   53.572863
   2.426085   53.628227
   2.427686   53.682717
   2.429286   53.736330
   2.430886   53.789065
   2.432486   53.840918
   2.434087   53.891887
   2.435687   53.941969
   2.437287   53.991162
   2.438888   54.039464
   2.440488   54.086872
   2.442088   54.133384
   2.443689   54.178998
   2.445289   54.223711
   2.446889   54.267522
   2.448490   54.310428
   2.450090   54.352428
   2.451690   54.393519
   2.453291   54.433700
   2.454891   54.472968
   2.456491   54.511322
   2.458092   54.548761
   2.459692   54.585282
   2.461292   54.620884
   2.462893   54.655565
   2.464493   54.689324
   2.466093   54.722160
   2.467694   54.754070
   2.469294   54.785054
   2.470894   54.815110
   2.472494   54.844237
   2.474095   54.872434
   2.475695   54.899699
   2.477295   54.926033
   2.478896   54.951432
   2.480496   54.975898
   2.482096   54.999428
   2.483697   55.022022
   2.485297   55.043680
   2.486897   55.064399
   2.488498   55.084181
   2.490098   55.103023
   2.491698   55.120927
   2.493299   55.137890
   2.494899   55.153913
   2.496499   55.168995
   2.498100   55.183136
   2.499700   55.196336
   2.501300   55.208594
   2.502901   55.219911
   2.504501   55.230286
   2.506101   55.239719
   2.507702   55.248211
   2.509302   55.255761
   2.510902   55.262369
   2.512503   55.268037
   2.514103   55.272763
   2.515703   55.276549
   2.517303   55.279395
   2.518904   55.281301
   2.520504   55.282268
   2.522104   55.282296
   2.523705   55.281387
   2.525305   55.279540
   2.526905   55.276756
   2.528506   55.273037
   2.530106   55.268383
   2.531706   55.262796
   2.533307   55.256275
   2.534907   55.248823
   2.536507   55.240441
   2.538108   55.231129
   2.539708   55.220888
   2.541308   55.209721
   2.542909   55.197629
   2.544509   55.184613
   2.546109   55.170674
   2.547710   55.155814
   2.549310   55.140035
   2.550910   55.123338
   2.552511   55.105725
   2.554111   55.087199
   2.555711   55.067760
   2.557311   55.047411
   2.558912   55.026153
   2.560512   55.003990
   2.562112   54.980922
   2.563713   54.956953
   2.565313   54.932084
   2.566913   54.906317
   2.568514   54.879656
   2.570114   54.852102
   2.571714   54.823657
   2.573315   54.794326
   2.574915   54.764109
   2.576515   54.733010
   2.578116   54.701031
   2.579716   54.668176
   2.581316   54.634447
   2.582917   54.599847
   2.584517   54.564379
   2.586117   54.528045
   2.587718   54.490850
   2.589318   54.452796
   2.590918   54.413887
   2.592519   54.374125
   2.594119   54.333514
   2.595719   54.292058
   2.597319   54.249759
   2.598920   54.206622
   2.600520   54.162650
   2.602120   54.117846
   2.603721   54.072215
   2.605321   54.025759
   2.606921   53.978484
   2.608522   53.930392
   2.610122   53.881487
   2.611722   53.831774
   2.613323   53.781257
   2.614923   53.729939
   2.616523   53.677825
   2.618124   53.624919
   2.619724   53.571226
   2.621324   53.516749
   2.622925   53.461493
   2.624525   53.405462
   2.626125   53.348661
   2.627726   53.291095
   2.629326   53.232767
   2.630926   53.173684
   2.632527   53.113848
   2.634127   53.053266
   2.635727   52.991942
   2.637327   52.929880
   2.638928   52.867087
   2.640528   52.803566
   2.642128   52.739323
   2.643729   52.674363
   2.645329   52.608690
   2.646929   52.542311
   2.648530   52.475231
   2.650130   52.407454
   2.651730   52.338986
   2.653331   52.269833
   2.654931   52.200000
   2.656531   52.129493
   2.658132   52.058316
   2.659732   51.986476
   2.661332   51.913978
   2.662933   51.840829
   2.664533   51.767033
   2.666133   51.692596
   2.667734   51.617526
   2.669334   51.541826
   2.670934   51.465504
   2.672535   51.388565
   2.674135   51.311016
   2.675735   51.232862
   2.677335   51.154109
   2.678936   51.074765
   2.680536   50.994834
   2.682136   50.914324
   2.683737   50.833240
   2.685337   50.751590
   2.686937   50.669378
   2.688538   50.586613
   2.690138   50.503300
   2.691738   50.419447
   2.693339   50.335058
   2.694939   50.250142
   2.696539   50.164705
   2.698140   50.078753
   2.699740   49.992294
   2.701340   49.905334
   2.702941   49.817880
   2.704541   49.729939
   2.706141   49.641517
   2.707742   49.552623
   2.709342   49.463262
   2.710942   49.373442
   2.712543   49.283170
   2.714143   49.192454
   2.715743   49.101299
   2.717343   49.009714
   2.718944   48.917705
   2.720544   48.825280
   2.722144   48.732447
   2.723745   48.639212
   2.725345   48.545583
   2.726945   48.451567
   2.728546   48.357172
   2.730146   48.262405
   2.731746   48.167274
   2.733347   48.071786
   2.734947   47.975949
   2.736547   47.879771
   2.738148   47.783259
   2.739748   47.686420
   2.741348   47.589263
   2.742949   47.491795
   2.744549   47.394024
   2.746149   47.295957
   2.747750   47.197603
   2.749350   47.098969
   2.750950   47.000064
   2.752551   46.900895
   2.754151   46.801469
   2.755751   46.701796
   2.757351   46.601882
   2.758952   46.501736
   2.760552   46.401366
   2.762152   46.300780
   2.763753   46.199986
   2.765353   46.098992
   2.766953   45.997806
   2.768554   45.896436
   2.770154   45.794891
   2.771754   45.693178
   2.773355   45.591305
   2.774955   45.489282
   2.776555   45.387116
   2.778156   45.284815
   2.779756   45.182388
   2.781356   45.079842
   2.782957   44.977187
   2.784557   44.874429
   2.786157   44.771579
   2.787758   44.668644
   2.789358   44.565632
   2.790958   44.462551
   2.792559   44.359411
   2.794159   44.256219
   2.795759   44.152983
   2.797359   44.049713
   2.798960   43.946417
   2.800560   43.843102
   2.802160   43.739778
   2.803761   43.636452
   2.805361   43.533134
   2.806961   43.429831
   2.808562   43.326552
   2.810162   43.223306
   2.811762   43.120100
   2.813363   43.016944
   2.814963   42.913846
   2.816563   42.810814
   2.818164   42.707857
   2.819764   42.604982
   2.821364   42.502200
   2.822965   42.399517
   2.824565   42.296943
   2.826165   42.194486
   2.827766   42.092155
   2.829366   41.989957
   2.830966   41.887901
   2.832567   41.785996
   2.834167   41.684251
   2.835767   41.582672
   2.837367   41.481270
   2.838968   41.380052
   2.840568   41.279027
   2.842168   41.178203
   2.843769   41.077588
   2.845369   40.977192
   2.846969   40.877021
   2.848570   40.777085
   2.850170   40.677392
   2.851770   40.577950
   2.853371   40.478768
   2.854971   40.379853
   2.856571   40.281215
   2.858172   40.182861
   2.859772   40.084799
   2.861372   39.987038
   2.862973   39.889586
   2.864573   39.792452
   2.866173   39.695642
   2.867774   39.599166
   2.869374   39.503032
   2.870974   39.407247
   2.872575   39.311820
   2.874175   39.216759
   2.875775   39.122071
   2.877375   39.027766
   2.878976   38.933850
   2.880576   38.840332
   2.882176   38.747219
   2.883777   38.654520
   2.885377   38.562242
   2.886977   38.470394
   2.888578   38.378983
   2.890178   38.288016
   2.891778   38.197502
   2.893379   38.107448
   2.894979   38.017862
   2.896579   37.928751
   2.898180   37.840124
   2.899780   37.751987
   2.901380   37.664348
   2.902981   37.577216
   2.904581   37.490596
   2.906181   37.404497
   2.907782   37.318925
   2.909382   37.233889
   2.910982   37.149396
   2.912583   37.065452
   2.914183   36.982065
   2.915783   36.899242
   2.917383   36.816991
   2.918984   36.735318
   2.920584   36.654230
   2.922184   36.573734
   2.923785   36.493838
   2.925385   36.414548
   2.926985   36.335870
   2.928586   36.257813
   2.930186   36.180382
   2.931786   36.103583
   2.933387   36.027425
   2.934987   35.951913
   2.936587   35.877054
   2.938188   35.802854
   2.939788   35.729320
   2.941388   35.656457
   2.942989   35.584274
   2.944589   35.512774
   2.946189   35.441966
   2.947790   35.371854
   2.949390   35.302445
   2.950990   35.233745
   2.952591   35.165760
   2.954191   35.098495
   2.955791   35.031957
   2.957391   34.966152
   2.958992   34.901084
   2.960592   34.836760
   2.962192   34.773185
   2.963793   34.710364
   2.965393   34.648303
   2.966993   34.587008
   2.968594   34.526484
   2.970194   34.466735
   2.971794   34.407767
   2.973395   34.349585
   2.974995   34.292194
   2.976595   34.235599
   2.978196   34.179805
   2.979796   34.124817
   2.981396   34.070638
   2.982997   34.017275
   2.984597   33.964731
   2.986197   33.913011
   2.987798   33.862119
   2.989398   33.812060
   2.990998   33.762837
   2.992599   33.714456
   2.994199   33.666920
   2.995799   33.620232
   2.997399   33.574398
   2.999000   33.529420
   3.000600   33.485303
   3.002200   33.442050
   3.003801   33.399665
   3.005401   33.358152
   3.007001   33.317513
   3.008602   33.277752
   3.010202   33.238872
   3.011802   33.200877
   3.013403   33.163769
   3.015003   33.127551
   3.016603   33.092227
   3.018204   33.057800
   3.019804   33.024270
   3.021404   32.991643
   3.023005   32.959919
   3.024605   32.929102
   3.026205   32.899194
   3.027806   32.870196
   3.029406   32.842112
   3.031006   32.814943
   3.032607   32.788691
   3.034207   32.763359
   3.035807   32.738947
   3.037407   32.715457
   3.039008   32.692892
   3.040608   32.671252
   3.042208   32.650540
   3.043809   32.630755
   3.045409   32.611900
   3.047009   32.593976
   3.048610   32.576983
   3.050210   32.560923
   3.051810   32.545796
   3.053411   32.531603
   3.055011   32.518345
   3.056611   32.506021
   3.058212   32.494633
   3.059812   32.484181
   3.061412   32.474665
   3.063013   32.466085
   3.064613   32.458441
   3.066213   32.451733
   3.067814   32.445960
   3.069414   32.441123
   3.071014   32.437221
   3.072615   32.434254
   3.074215   32.432220
   3.075815   32.431119
   3.077415   32.430951
   3.079016   32.431713
   3.080616   32.433406
   3.082216   32.436029
   3.083817   32.439578
   3.085417   32.444055
   3.087017   32.449456
   3.088618   32.455781
   3.090218   32.463027
   3.091818   32.471193
   3.093419   32.480278
   3.095019   32.490278
   3.096619   32.501192
   3.098220   32.513018
   3.099820   32.525754
   3.101420   32.539396
   3.103021   32.553942
   3.104621   32.569391
   3.106221   32.585738
   3.107822   32.602982
   3.109422   32.621118
   3.111022   32.640145
   3.112623   32.660059
   3.114223   32.680856
   3.115823   32.702534
   3.117423   32.725088
   3.119024   32.748516
   3.120624   32.772813
   3.122224   32.797975
   3.123825   32.824000
   3.125425   32.850882
   3.127025   32.878618
   3.128626   32.907203
   3.130226   32.936633
   3.131826   32.966903
   3.133427   32.998010
   3.135027   33.029947
   3.136627   33.062712
   3.138228   33.096298
   3.139828   33.130701
   3.141428   33.165916
   3.143029   33.201937
   3.144629   33.238759
   3.146229   33.276377
   3.147830   33.314786
   3.149430   33.353980
   3.151030   33.393952
   3.152631   33.434698
   3.154231   33.476212
   3.155831   33.518487
   3.157431   33.561517
   3.159032   33.605297
   3.160632   33.649819
   3.162232   33.695078
   3.163833   33.741068
   3.165433   33.787781
   3.167033   33.835210
   3.168634   33.883350
   3.170234   33.932194
   3.171834   33.981733
   3.173435   34.031962
   3.175035   34.082873
   3.176635   34.134459
   3.178236   34.186713
   3.179836   34.239627
   3.181436   34.293194
   3.183037   34.347406
   3.184637   34.402255
   3.186237   34.457734
   3.187838   34.513835
   3.189438   34.570550
   3.191038   34.627871
   3.192639   34.685790
   3.194239   34.744298
   3.195839   34.803388
   3.197439   34.863051
   3.199040   34.923278
   3.200640   34.984061
   3.202240   35.045392
   3.203841   35.107261
   3.205441   35.169661
   3.207041   35.232582
   3.208642   35.296015
   3.210242   35.359951
   3.211842   35.424382
   3.213443   35.489298
   3.215043   35.554689
   3.216643   35.620548
   3.218244   35.686864
   3.219844   35.753627
   3.221444   35.820829
   3.223045   35.888460
   3.224645   35.956511
   3.226245   36.024971
   3.227846   36.093831
   3.229446   36.163081
   3.231046   36.232711
   3.232647   36.302711
   3.234247   36.373072
   3.235847   36.443784
   3.237447   36.514835
   3.239048   36.586217
   3.240648   36.657918
   3.242248   36.729929
   3.243849   36.802239
   3.245449   36.874839
   3.247049   36.947717
   3.248650   37.020863
   3.250250   37.094267
   3.251850   37.167917
   3.253451   37.241805
   3.255051   37.315918
   3.256651   37.390247
   3.258252   37.464780
   3.259852   37.539506
   3.261452   37.614416
   3.263053   37.689498
   3.264653   37.764741
   3.266253   37.840135
   3.267854   37.915668
   3.269454   37.991330
   3.271054   38.067110
   3.272655   38.142996
   3.274255   38.218978
   3.275855   38.295044
   3.277455   38.371184
   3.279056   38.447386
   3.280656   38.523639
   3.282256   38.599933
   3.283857   38.676255
   3.285457   38.752595
   3.287057   38.828942
   3.288658   38.905285
   3.290258   38.981612
   3.291858   39.057911
   3.293459   39.134173
   3.295059   39.210385
   3.296659   39.286537
   3.298260   39.362616
   3.299860   39.438613
   3.301460   39.514515
   3.303061   39.590312
   3.304661   39.665992
   3.306261   39.741544
   3.307862   39.816956
   3.309462   39.892218
   3.311062   39.967319
   3.312663   40.042247
   3.314263   40.116990
   3.315863   40.191539
   3.317463   40.265881
   3.319064   40.340006
   3.320664   40.413902
   3.322264   40.487558
   3.323865   40.560964
   3.325465   40.634108
   3.327065   40.706979
   3.328666   40.779566
   3.330266   40.851859
   3.331866   40.923845
   3.333467   40.995515
   3.335067   41.066858
   3.336667   41.137862
   3.338268   41.208517
   3.339868   41.278812
   3.341468   41.348736
   3.343069   41.418279
   3.344669   41.487429
   3.346269   41.556177
   3.347870   41.624512
   3.349470   41.692423
   3.351070   41.759900
   3.352671   41.826932
   3.354271   41.893510
   3.355871   41.959622
   3.357471   42.025258
   3.359072   42.090409
   3.360672   42.155063
   3.362272   42.219212
   3.363873   42.282845
   3.365473   42.345951
   3.367073   42.408522
   3.368674   42.470546
   3.370274   42.532016
   3.371874   42.592920
   3.373475   42.653249
   3.375075   42.712993
   3.376675   42.772144
   3.378276   42.830691
   3.379876   42.888625
   3.381476   42.945938
   3.383077   43.002619
   3.384677   43.058660
   3.386277   43.114051
   3.387878   43.168784
   3.389478   43.222850
   3.391078   43.276239
   3.392679   43.328944
   3.394279   43.380956
   3.395879   43.432265
   3.397479   43.482864
   3.399080   43.532745
   3.400680   43.581898
   3.402280   43.630316
   3.403881   43.677991
   3.405481   43.724915
   3.407081   43.771080
   3.408682   43.816477
   3.410282   43.861100
   3.411882   43.904941
   3.413483   43.947992
   3.415083   43.990246
   3.416683   44.031696
   3.418284   44.072334
   3.419884   44.112153
   3.421484   44.151147
   3.423085   44.189308
   3.424685   44.226630
   3.426285   44.263106
   3.427886   44.298729
   3.429486   44.333494
   3.431086   44.367393
   3.432687   44.400421
   3.434287   44.432571
   3.435887   44.463838
   3.437487   44.494216
   3.439088   44.523698
   3.440688   44.552280
   3.442288   44.579955
   3.443889   44.606719
   3.445489   44.632566
   3.447089   44.657491
   3.448690   44.681489
   3.450290   44.704555
   3.451890   44.726684
   3.453491   44.747872
   3.455091   44.768113
   3.456691   44.787404
   3.458292   44.805741
   3.459892   44.823119
   3.461492   44.839534
   3.463093   44.854982
   3.464693   44.869459
   3.466293   44.882962
   3.467894   44.895488
   3.469494   44.907032
   3.471094   44.917592
   3.472695   44.927165
   3.474295   44.935746
   3.475895   44.943335
   3.477495   44.949927
   3.479096   44.955520
   3.480696   44.960112
   3.482296   44.963700
   3.483897   44.966283
   3.485497   44.967857
   3.487097   44.968422
   3.488698   44.967975
   3.490298   44.966514
   3.491898   44.964038
   3.493499   44.960546
   3.495099   44.956037
   3.496699   44.950508
   3.498300   44.943959
   3.499900   44.936390
   3.501500   44.927799
   3.503101   44.918186
   3.504701   44.907551
   3.506301   44.895892
   3.507902   44.883210
   3.509502   44.869505
   3.511102   44.854776
   3.512703   44.839025
   3.514303   44.822250
   3.515903   44.804453
   3.517504   44.785635
   3.519104   44.765795
   3.520704   44.744935
   3.522304   44.723056
   3.523905   44.700159
   3.525505   44.676245
   3.527105   44.651316
   3.528706   44.625372
   3.530306   44.598416
   3.531906   44.570449
   3.533507   44.541474
   3.535107   44.511491
   3.536707   44.480505
   3.538308   44.448516
   3.539908   44.415527
   3.541508   44.381540
   3.543109   44.346559
   3.544709   44.310586
   3.546309   44.273624
   3.547910   44.235676
   3.549510   44.196745
   3.551110   44.156835
   3.552711   44.115948
   3.554311   44.074089
   3.555911   44.031261
   3.557512   43.987467
   3.559112   43.942712
   3.560712   43.897000
   3.562312   43.850335
   3.563913   43.802721
   3.565513   43.754163
   3.567113   43.704664
   3.568714   43.654230
   3.570314   43.602865
   3.571914   43.550574
   3.573515   43.497362
   3.575115   43.443234
   3.576715   43.388196
   3.578316   43.332252
   3.579916   43.275408
   3.581516   43.217669
   3.583117   43.159041
   3.584717   43.099530
   3.586317   43.039141
   3.587918   42.977881
   3.589518   42.915755
   3.591118   42.852769
   3.592719   42.788931
   3.594319   42.724245
   3.595919   42.658719
   3.597520   42.592359
   3.599120   42.525171
   3.600720   42.457163
   3.602320   42.388340
   3.603921   42.318711
   3.605521   42.248282
   3.607121   42.177060
   3.608722   42.105052
   3.610322   42.032265
   3.611922   41.958707
   3.613523   41.884386
   3.615123   41.809308
   3.616723   41.733482
   3.618324   41.656914
   3.619924   41.579613
   3.621524   41.501587
   3.623125   41.422844
   3.624725   41.343390
   3.626325   41.263236
   3.627926   41.182387
   3.629526   41.100854
   3.631126   41.018644
   3.632727   40.935765
   3.634327   40.852227
   3.635927   40.768036
   3.637528   40.683203
   3.639128   40.597735
   3.640728   40.511641
   3.642328   40.424930
   3.643929   40.337611
   3.645529   40.249692
   3.647129   40.161183
   3.648730   40.072092
   3.650330   39.982429
   3.651930   39.892202
   3.653531   39.801421
   3.655131   39.710094
   3.656731   39.618231
   3.658332   39.525842
   3.659932   39.432935
   3.661532   39.339520
   3.663133   39.245606
   3.664733   39.151203
   3.666333   39.056320
   3.667934   38.960967
   3.669534   38.865153
   3.671134   38.768887
   3.672735   38.672180
   3.674335   38.575041
   3.675935   38.477480
   3.677536   38.379506
   3.679136   38.281129
   3.680736   38.182359
   3.682336   38.083205
   3.683937   37.983678
   3.685537   37.883786
   3.687137   37.783541
   3.688738   37.682952
   3.690338   37.582028
   3.691938   37.480780
   3.693539   37.379218
   3.695139   37.277350
   3.696739   37.175188
   3.698340   37.072741
   3.699940   36.970020
   3.701540   36.867033
   3.703141   36.763791
   3.704741   36.660304
   3.706341   36.556582
   3.707942   36.452635
   3.709542   36.348473
   3.711142   36.244105
   3.712743   36.139541
   3.714343   36.034792
   3.715943   35.929868
   3.717544   35.824778
   3.719144   35.719532
   3.720744   35.614140
   3.722344   35.508612
   3.723945   35.402957
   3.725545   35.297187
   3.727145   35.191309
   3.728746   35.085335
   3.730346   34.979274
   3.731946   34.873136
   3.733547   34.766930
   3.735147   34.660666
   3.736747   34.554355
   3.738348   34.448004
   3.739948   34.341625
   3.741548   34.235227
   3.743149   34.128819
   3.744749   34.022411
   3.746349   33.916012
   3.747950   33.809631
   3.749550   33.703280
   3.751150   33.596965
   3.752751   33.490698
   3.754351   33.384487
   3.755951   33.278341
   3.757552   33.172271
   3.759152   33.066284
   3.760752   32.960390
   3.762352   32.854598
   3.763953   32.748918
   3.765553   32.643358
   3.767153   32.537927
   3.768754   32.432634
   3.770354   32.327488
   3.771954   32.222497
   3.773555   32.117671
   3.775155   32.013019
   3.776755   31.908547
   3.778356   31.804267
   3.779956   31.700185
   3.781556   31.596310
   3.783157   31.492651
   3.784757   31.389216
   3.786357   31.286013
   3.787958   31.183051
   3.789558   31.080337
   3.791158   30.977880
   3.792759   30.875687
   3.794359   30.773768
   3.795959   30.672129
   3.797560   30.570778
   3.799160   30.469723
   3.800760   30.368972
   3.802360   30.268532
   3.803961   30.168411
   3.805561   30.068617
   3.807161   29.969156
   3.808762   29.870036
   3.810362   29.771265
   3.811962   29.672849
   3.813563   29.574795
   3.815163   29.477111
   3.816763   29.379803
   3.818364   29.282879
   3.819964   29.186344
   3.821564   29.090206
   3.823165   28.994472
   3.824765   28.899148
   3.826365   28.804239
   3.827966   28.709754
   3.829566   28.615697
   3.831166   28.522076
   3.832767   28.428896
   3.834367   28.336163
   3.835967   28.243884
   3.837568   28.152063
   3.839168   28.060708
   3.840768   27.969823
   3.842368   27.879415
   3.843969   27.789488
   3.845569   27.700048
   3.847169   27.611101
   3.848770   27.522651
   3.850370   27.434705
   3.851970   27.347266
   3.853571   27.260341
   3.855171   27.173933
   3.856771   27.088048
   3.858372   27.002691
   3.859972   26.917866
   3.861572   26.833577
   3.863173   26.749829
   3.864773   26.666627
   3.866373   26.583974
   3.867974   26.501876
   3.869574   26.420335
   3.871174   26.339356
   3.872775   26.258944
   3.874375   26.179100
   3.875975   26.099831
   3.877576   26.021138
   3.879176   25.943026
   3.880776   25.865498
   3.882376   25.788557
   3.883977   25.712207
   3.885577   25.636451
   3.887177   25.561292
   3.888778   25.486732
   3.890378   25.412775
   3.891978   25.339424
   3.893579   25.266682
   3.895179   25.194550
   3.896779   25.123031
   3.898380   25.052129
   3.899980   24.981844
   3.901580   24.912181
   3.903181   24.843139
   3.904781   24.774723
   3.906381   24.706933
   3.907982   24.639772
   3.909582   24.573241
   3.911182   24.507342
   3.912783   24.442077
   3.914383   24.377448
   3.915983   24.313455
   3.917584   24.250100
   3.919184   24.187384
   3.920784   24.125309
   3.922384   24.063875
   3.923985   24.003084
   3.925585   23.942936
   3.927185   23.883433
   3.928786   23.824574
   3.930386   23.766362
   3.931986   23.708795
   3.933587   23.651875
   3.935187   23.595603
   3.936787   23.539977
   3.938388   23.485000
   3.939988   23.430670
   3.941588   23.376987
   3.943189   23.323953
   3.944789   23.271566
   3.946389   23.219827
   3.947990   23.168735
   3.949590   23.118289
   3.951190   23.068490
   3.952791   23.019337
   3.954391   22.970829
   3.955991   22.922966
   3.957592   22.875746
   3.959192   22.829169
   3.960792   22.783235
   3.962392   22.737941
   3.963993   22.693287
   3.965593   22.649272
   3.967193   22.605894
   3.968794   22.563153
   3.970394   22.521047
   3.971994   22.479574
   3.973595   22.438732
   3.975195   22.398521
   3.976795   22.358939
   3.978396   22.319984
   3.979996   22.281653
   3.981596   22.243946
   3.983197   22.206860
   3.984797   22.170393
   3.986397   22.134543
   3.987998   22.099308
   3.989598   22.064686
   3.991198   22.030674
   3.992799   21.997270
   3.994399   21.964472
   3.995999   21.932277
   3.997600   21.900682
   3.999200   21.869685
   4.000800   21.839284
   4.002400   21.809475
   4.004001   21.780256
   4.005601   21.751623
   4.007201   21.723575
   4.008802   21.696107
   4.010402   21.669217
   4.012002   21.642902
   4.013603   21.617159
   4.015203   21.591984
   4.016803   21.567374
   4.018404   21.543326
   4.020004   21.519836
   4.021604   21.496902
   4.023205   21.474519
   4.024805   21.452684
   4.026405   21.431393
   4.028006   21.410643
   4.029606   21.390430
   4.031206   21.370751
   4.032807   21.351601
   4.034407   21.332977
   4.036007   21.314875
   4.037608   21.297291
   4.039208   21.280221
   4.040808   21.263660
   4.042408   21.247606
   4.044009   21.232054
   4.045609   21.216999
   4.047209   21.202438
   4.048810   21.188366
   4.050410   21.174780
   4.052010   21.161674
   4.053611   21.149045
   4.055211   21.136887
   4.056811   21.125198
   4.058412   21.113971
   4.060012   21.103204
   4.061612   21.092890
   4.063213   21.083027
   4.064813   21.073608
   4.066413   21.064631
   4.068014   21.056089
   4.069614   21.047978
   4.071214   21.040294
   4.072815   21.033032
   4.074415   21.026187
   4.076015   21.019754
   4.077616   21.013729
   4.079216   21.008106
   4.080816   21.002881
   4.082416   20.998049
   4.084017   20.993606
   4.085617   20.989545
   4.087217   20.985863
   4.088818   20.982554
   4.090418   20.979613
   4.092018   20.977035
   4.093619   20.974815
   4.095219   20.972949
   4.096819   20.971431
   4.098420   20.970256
   4.100020   20.969419
   4.101620   20.968914
   4.103221   20.968738
   4.104821   20.968883
   4.106421   20.969347
   4.108022   20.970123
   4.109622   20.971205
   4.111222   20.972590
   4.112823   20.974272
   4.114423   20.976245
   4.116023   20.978504
   4.117624   20.981045
   4.119224   20.983861
   4.120824   20.986948
   4.122424   20.990301
   4.124025   20.993913
   4.125625   20.997781
   4.127225   21.001898
   4.128826   21.006260
   4.130426   21.010861
   4.132026   21.015696
   4.133627   21.020760
   4.135227   21.026047
   4.136827   21.031552
   4.138428   21.037270
   4.140028   21.043196
   4.141628   21.049325
   4.143229   21.055650
   4.144829   21.062167
   4.146429   21.068871
   4.148030   21.075757
   4.149630   21.082818
   4.151230   21.090051
   4.152831   21.097449
   4.154431   21.105008
   4.156031   21.112722
   4.157632   21.120586
   4.159232   21.128595
   4.160832   21.136744
   4.162432   21.145027
   4.164033   21.153440
   4.165633   21.161977
   4.167233   21.170634
   4.168834   21.179404
   4.170434   21.188283
   4.172034   21.197266
   4.173635   21.206348
   4.175235   21.215523
   4.176835   21.224787
   4.178436   21.234134
   4.180036   21.243560
   4.181636   21.253059
   4.183237   21.262627
   4.184837   21.272258
   4.186437   21.281948
   4.188038   21.291692
   4.189638   21.301484
   4.191238   21.311320
   4.192839   21.321195
   4.194439   21.331104
   4.196039   21.341042
   4.197640   21.351004
   4.199240   21.360986
   4.200840   21.370983
   4.202440   21.380990
   4.204041   21.391002
   4.205641   21.401015
   4.207241   21.411024
   4.208842   21.421024
   4.210442   21.431010
   4.212042   21.440979
   4.213643   21.450925
   4.215243   21.460843
   4.216843   21.470730
   4.218444   21.480581
   4.220044   21.490391
   4.221644   21.500156
   4.223245   21.509872
   4.224845   21.519533
   4.226445   21.529137
   4.228046   21.538677
   4.229646   21.548150
   4.231246   21.557553
   4.232847   21.566879
   4.234447   21.576126
   4.236047   21.585289
   4.237648   21.594363
   4.239248   21.603346
   4.240848   21.612232
   4.242448   21.621017
   4.244049   21.629698
   4.245649   21.638271
   4.247249   21.646731
   4.248850   21.655074
   4.250450   21.663297
   4.252050   21.671396
   4.253651   21.679367
   4.255251   21.687206
   4.256851   21.694909
   4.258452   21.702473
   4.260052   21.709894
   4.261652   21.717168
   4.263253   21.724291
   4.264853   21.731260
   4.266453   21.738072
   4.268054   21.744722
   4.269654   21.751208
   4.271254   21.757526
   4.272855   21.763672
   4.274455   21.769643
   4.276055   21.775436
   4.277656   21.781047
   4.279256   21.786473
   4.280856   21.791711
   4.282456   21.796758
   4.284057   21.801610
   4.285657   21.806264
   4.287257   21.810718
   4.288858   21.814967
   4.290458   21.819010
   4.292058   21.822843
   4.293659   21.826463
   4.295259   21.829867
   4.296859   21.833053
   4.298460   21.836017
   4.300060   21.838756
   4.301660   21.841269
   4.303261   21.843552
   4.304861   21.845603
   4.306461   21.847418
   4.308062   21.848996
   4.309662   21.850334
   4.311262   21.851429
   4.312863   21.852278
   4.314463   21.852880
   4.316063   21.853232
   4.317664   21.853331
   4.319264   21.853175
   4.320864   21.852763
   4.322464   21.852090
   4.324065   21.851157
   4.325665   21.849959
   4.327265   21.848496
   4.328866   21.846764
   4.330466   21.844763
   4.332066   21.842489
   4.333667   21.839942
   4.335267   21.837118
   4.336867   21.834017
   4.338468   21.830635
   4.340068   21.826973
   4.341668   21.823026
   4.343269   21.818795
   4.344869   21.814277
   4.346469   21.809470
   4.348070   21.804374
   4.349670   21.798985
   4.351270   21.793304
   4.352871   21.787327
   4.354471   21.781055
   4.356071   21.774484
   4.357672   21.767615
   4.359272   21.760445
   4.360872   21.752974
   4.362472   21.745200
   4.364073   21.737121
   4.365673   21.728737
   4.367273   21.720047
   4.368874   21.711048
   4.370474   21.701741
   4.372074   21.692124
   4.373675   21.682197
   4.375275   21.671957
   4.376875   21.661405
   4.378476   21.650539
   4.380076   21.639359
   4.381676   21.627863
   4.383277   21.616052
   4.384877   21.603923
   4.386477   21.591477
   4.388078   21.578713
   4.389678   21.565630
   4.391278   21.552228
   4.392879   21.538506
   4.394479   21.524463
   4.396079   21.510099
   4.397680   21.495414
   4.399280   21.480407
   4.400880   21.465078
   4.402480   21.449426
   4.404081   21.433452
   4.405681   21.417154
   4.407281   21.400533
   4.408882   21.383589
   4.410482   21.366321
   4.412082   21.348729
   4.413683   21.330813
   4.415283   21.312573
   4.416883   21.294009
   4.418484   21.275121
   4.420084   21.255910
   4.421684   21.236374
   4.423285   21.216515
   4.424885   21.196332
   4.426485   21.175826
   4.428086   21.154996
   4.429686   21.133844
   4.431286   21.112369
   4.432887   21.090571
   4.434487   21.068452
   4.436087   21.046011
   4.437688   21.023249
   4.439288   21.000166
   4.440888   20.976763
   4.442488   20.953039
   4.444089   20.928997
   4.445689   20.904636
   4.447289   20.879957
   4.448890   20.854960
   4.450490   20.829647
   4.452090   20.804017
   4.453691   20.778072
   4.455291   20.751813
   4.456891   20.725239
   4.458492   20.698353
   4.460092   20.671154
   4.461692   20.643644
   4.463293   20.615823
   4.464893   20.587693
   4.466493   20.559254
   4.468094   20.530508
   4.469694   20.501454
   4.471294   20.472096
   4.472895   20.442432
   4.474495   20.412466
   4.476095   20.382196
   4.477696   20.351626
   4.479296   20.320756
   4.480896   20.289587
   4.482496   20.258120
   4.484097   20.226356
   4.485697   20.194298
   4.487297   20.161946
   4.488898   20.129301
   4.490498   20.096365
   4.492098   20.063139
   4.493699   20.029624
   4.495299   19.995823
   4.496899   19.961736
   4.498500   19.927365
   4.500100   19.892711
   4.501700   19.857776
   4.503301   19.822561
   4.504901   19.787068
   4.506501   19.751298
   4.508102   19.715254
   4.509702   19.678936
   4.511302   19.642347
   4.512903   19.605487
   4.514503   19.568359
   4.516103   19.530965
   4.517704   19.493305
   4.519304   19.455382
   4.520904   19.417197
   4.522505   19.378753
   4.524105   19.340051
   4.525705   19.301092
   4.527305   19.261879
   4.528906   19.222414
   4.530506   19.182698
   4.532106   19.142733
   4.533707   19.102521
   4.535307   19.062064
   4.536907   19.021365
   4.538508   18.980424
   4.540108   18.939243
   4.541708   18.897826
   4.543309   18.856174
   4.544909   18.814288
   4.546509   18.772171
   4.548110   18.729825
   4.549710   18.687251
   4.551310   18.644453
   4.552911   18.601432
   4.554511   18.558189
   4.556111   18.514728
   4.557712   18.471050
   4.559312   18.427158
   4.560912   18.383053
   4.562513   18.338738
   4.564113   18.294215
   4.565713   18.249486
   4.567313   18.204553
   4.568914   18.159418
   4.570514   18.114084
   4.572114   18.068553
   4.573715   18.022827
   4.575315   17.976908
   4.576915   17.930799
   4.578516   17.884501
   4.580116   17.838018
   4.581716   17.791351
   4.583317   17.744502
   4.584917   17.697475
   4.586517   17.650270
   4.588118   17.602891
   4.589718   17.555340
   4.591318   17.507619
   4.592919   17.459730
   4.594519   17.411676
   4.596119   17.363459
   4.597720   17.315081
   4.599320   17.266546
   4.600920   17.217854
   4.602521   17.169009
   4.604121   17.120013
   4.605721   17.070868
   4.607321   17.021576
   4.608922   16.972141
   4.610522   16.922563
   4.612122   16.872847
   4.613723   16.822994
   4.615323   16.773006
   4.616923   16.722886
   4.618524   16.672636
   4.620124   16.622259
   4.621724   16.571757
   4.623325   16.521133
   4.624925   16.470388
   4.626525   16.419526
   4.628126   16.368549
   4.629726   16.317458
   4.631326   16.266257
   4.632927   16.214949
   4.634527   16.163534
   4.636127   16.112016
   4.637728   16.060398
   4.639328   16.008680
   4.640928   15.956867
   4.642529   15.904961
   4.644129   15.852963
   4.645729   15.800876
   4.647329   15.748703
   4.648930   15.696445
   4.650530   15.644107
   4.652130   15.591689
   4.653731   15.539194
   4.655331   15.486625
   4.656931   15.433983
   4.658532   15.381272
   4.660132   15.328494
   4.661732   15.275651
   4.663333   15.222745
   4.664933   15.169779
   4.666533   15.116756
   4.668134   15.063677
   4.669734   15.010545
   4.671334   14.957362
   4.672935   14.904131
   4.674535   14.850853
   4.676135   14.797532
   4.677736   14.744170
   4.679336   14.690769
   4.680936   14.637331
   4.682537   14.583858
   4.684137   14.530354
   4.685737   14.476819
   4.687337   14.423257
   4.688938   14.369670
   4.690538   14.316060
   4.692138   14.262429
   4.693739   14.208780
   4.695339   14.155115
   4.696939   14.101435
   4.698540   14.047745
   4.700140   13.994044
   4.701740   13.940337
   4.703341   13.886624
   4.704941   13.832909
   4.706541   13.779193
   4.708142   13.725478
   4.709742   13.671768
   4.711342   13.618063
   4.712943   13.564366
   4.714543   13.510680
   4.716143   13.457006
   4.717744   13.403346
   4.719344   13.349704
   4.720944   13.296080
   4.722545   13.242476
   4.724145   13.188896
   4.725745   13.135341
   4.727345   13.081813
   4.728946   13.028314
   4.730546   12.974846
   4.732146   12.921412
   4.733747   12.868012
   4.735347   12.814650
   4.736947   12.761328
   4.738548   12.708046
   4.740148   12.654808
   4.741748   12.601615
   4.743349   12.548469
   4.744949   12.495372
   4.746549   12.442326
   4.748150   12.389334
   4.749750   12.336396
   4.751350   12.283515
   4.752951   12.230692
   4.754551   12.177930
   4.756151   12.125230
   4.757752   12.072595
   4.759352   12.020025
   4.760952   11.967523
   4.762553   11.915091
   4.764153   11.862731
   4.765753   11.810443
   4.767353   11.758231
   4.768954   11.706095
   4.770554   11.654038
   4.772154   11.602060
   4.773755   11.550165
   4.775355   11.498353
   4.776955   11.446627
   4.778556   11.394987
   4.780156   11.343436
   4.781756   11.291975
   4.783357   11.240606
   4.784957   11.189330
   4.786557   11.138150
   4.788158   11.087066
   4.789758   11.036080
   4.791358   10.985194
   4.792959   10.934409
   4.794559   10.883727
   4.796159   10.833149
   4.797760   10.782676
   4.799360   10.732311
   4.800960   10.682055
   4.802561   10.631909
   4.804161   10.581875
   4.805761   10.531953
   4.807361   10.482146
   4.808962   10.432454
   4.810562   10.382880
   4.812162   10.333425
   4.813763   10.284089
   4.815363   10.234874
   4.816963   10.185782
   4.818564   10.136813
   4.820164   10.087970
   4.821764   10.039253
   4.823365    9.990663
   4.824965    9.942203
   4.826565    9.893872
   4.828166    9.845673
   4.829766    9.797606
   4.831366    9.749672
   4.832967    9.701874
   4.834567    9.654211
   4.836167    9.606685
   4.837768    9.559298
   4.839368    9.512050
   4.840968    9.464942
   4.842569    9.417975
   4.844169    9.371151
   4.845769    9.324470
   4.847369    9.277934
   4.848970    9.231543
   4.850570    9.185299
   4.852170    9.139202
   4.853771    9.093254
   4.855371    9.047455
   4.856971    9.001807
   4.858572    8.956309
   4.860172    8.910964
   4.861772    8.865771
   4.863373    8.820733
   4.864973    8.775849
   4.866573    8.731121
   4.868174    8.686549
   4.869774    8.642134
   4.871374    8.597878
   4.872975    8.553780
   4.874575    8.509841
   4.876175    8.466063
   4.877776    8.422446
   4.879376    8.378990
   4.880976    8.335697
   4.882577    8.292567
   4.884177    8.249601
   4.885777    8.206799
   4.887377    8.164163
   4.888978    8.121692
   4.890578    8.079387
   4.892178    8.037249
   4.893779    7.995279
   4.895379    7.953477
   4.896979    7.911843
   4.898580    7.870379
   4.900180    7.829084
   4.901780    7.787960
   4.903381    7.747006
   4.904981    7.706224
   4.906581    7.665613
   4.908182    7.625174
   4.909782    7.584908
   4.911382    7.544815
   4.912983    7.504895
   4.914583    7.465150
   4.916183    7.425578
   4.917784    7.386181
   4.919384    7.346959
   4.920984    7.307912
   4.922585    7.269041
   4.924185    7.230346
   4.925785    7.191828
   4.927385    7.153485
   4.928986    7.115320
   4.930586    7.077332
   4.932186    7.039521
   4.933787    7.001888
   4.935387    6.964433
   4.936987    6.927155
   4.938588    6.890056
   4.940188    6.853136
   4.941788    6.816394
   4.943389    6.779831
   4.944989    6.743447
   4.946589    6.707242
   4.948190    6.671217
   4.949790    6.635370
   4.951390    6.599703
   4.952991    6.564216
   4.954591    6.528909
   4.956191    6.493781
   4.957792    6.458833
   4.959392    6.424065
   4.960992    6.389476
   4.962593    6.355068
   4.964193    6.320840
   4.965793    6.286791
   4.967393    6.252922
   4.968994    6.219234
   4.970594    6.185725
   4.972194    6.152396
   4.973795    6.119246
   4.975395    6.086277
   4.976995    6.053487
   4.978596    6.020876
   4.980196    5.988445
   4.981796    5.956194
   4.983397    5.924121
   4.984997    5.892228
   4.986597    5.860514
   4.988198    5.828978
   4.989798    5.797621
   4.991398    5.766443
   4.992999    5.735443
   4.994599    5.704621
   4.996199    5.673977
   4.997800    5.643511
   4.999400    5.613222
   5.001000    5.583111
   5.002601    5.553177
   5.004201    5.523420
   5.005801    5.493839
   5.007401    5.464434
   5.009002    5.435206
   5.010602    5.406153
   5.012202    5.377276
   5.013803    5.348574
   5.015403    5.320047
   5.017003    5.291695
   5.018604    5.263517
   5.020204    5.235512
   5.021804    5.207682
   5.023405    5.180025
   5.025005    5.152540
   5.026605    5.125229
   5.028206    5.098089
   5.029806    5.071121
   5.031406    5.044325
   5.033007    5.017700
   5.034607    4.991246
   5.036207    4.964961
   5.037808    4.938847
   5.039408    4.912902
   5.041008    4.887126
   5.042609    4.861519
   5.044209    4.836080
   5.045809    4.810809
   5.047409    4.785705
   5.049010    4.760767
   5.050610    4.735996
   5.052210    4.711391
   5.053811    4.686952
   5.055411    4.662677
   5.057011    4.638567
   5.058612    4.614621
   5.060212    4.590838
   5.061812    4.567218
   5.063413    4.543761
   5.065013    4.520465
   5.066613    4.497331
   5.068214    4.474358
   5.069814    4.451546
   5.071414    4.428893
   5.073015    4.406399
   5.074615    4.384064
   5.076215    4.361888
   5.077816    4.339869
   5.079416    4.318007
   5.081016    4.296301
   5.082617    4.274752
   5.084217    4.253358
   5.085817    4.232119
   5.087417    4.211034
   5.089018    4.190102
   5.090618    4.169324
   5.092218    4.148698
   5.093819    4.128224
   5.095419    4.107901
   5.097019    4.087729
   5.098620    4.067707
   5.100220    4.047835
   5.101820    4.028111
   5.103421    4.008535
   5.105021    3.989108
   5.106621    3.969827
   5.108222    3.950692
   5.109822    3.931703
   5.111422    3.912859
   5.113023    3.894160
   5.114623    3.875604
   5.116223    3.857192
   5.117824    3.838922
   5.119424    3.820794
   5.121024    3.802807
   5.122625    3.784961
   5.124225    3.767255
   5.125825    3.749688
   5.127425    3.732259
   5.129026    3.714969
   5.130626    3.697816
   5.132226    3.680799
   5.133827    3.663919
   5.135427    3.647173
   5.137027    3.630563
   5.138628    3.614086
   5.140228    3.597743
   5.141828    3.581532
   5.143429    3.565453
   5.145029    3.549505
   5.146629    3.533688
   5.148230    3.518001
   5.149830    3.502443
   5.151430    3.487014
   5.153031    3.471712
   5.154631    3.456538
   5.156231    3.441490
   5.157832    3.426568
   5.159432    3.411771
   5.161032    3.397098
   5.162633    3.382550
   5.164233    3.368124
   5.165833    3.353820
   5.167433    3.339639
   5.169034    3.325578
   5.170634    3.311638
   5.172234    3.297817
   5.173835    3.284115
   5.175435    3.270532
   5.177035    3.257066
   5.178636    3.243717
   5.180236    3.230484
   5.181836    3.217366
   5.183437    3.204364
   5.185037    3.191475
   5.186637    3.178700
   5.188238    3.166038
   5.189838    3.153487
   5.191438    3.141048
   5.193039    3.128720
   5.194639    3.116502
   5.196239    3.104393
   5.197840    3.092392
   5.199440    3.080500
   5.201040    3.068715
   5.202641    3.057036
   5.204241    3.045463
   5.205841    3.033996
   5.207441    3.022633
   5.209042    3.011373
   5.210642    3.000217
   5.212242    2.989164
   5.213843    2.978212
   5.215443    2.967362
   5.217043    2.956612
   5.218644    2.945961
   5.220244    2.935410
   5.221844    2.924957
   5.223445    2.914603
   5.225045    2.904345
   5.226645    2.894183
   5.228246    2.884118
   5.229846    2.874147
   5.231446    2.864272
   5.233047    2.854489
   5.234647    2.844800
   5.236247    2.835204
   5.237848    2.825699
   5.239448    2.816286
   5.241048    2.806963
   5.242649    2.797730
   5.244249    2.788586
   5.245849    2.779531
   5.247449    2.770564
   5.249050    2.761684
   5.250650    2.752891
   5.252250    2.744184
   5.253851    2.735562
   5.255451    2.727025
   5.257051    2.718572
   5.258652    2.710203
   5.260252    2.701916
   5.261852    2.693712
   5.263453    2.685590
   5.265053    2.677548
   5.266653    2.669587
   5.268254    2.661706
   5.269854    2.653904
   5.271454    2.646180
   5.273055    2.638534
   5.274655    2.630966
   5.276255    2.623474
   5.277856    2.616059
   5.279456    2.608719
   5.281056    2.601454
   5.282657    2.594264
   5.284257    2.587147
   5.285857    2.580103
   5.287457    2.573132
   5.289058    2.566233
   5.290658    2.559405
   5.292258    2.552649
   5.293859    2.545962
   5.295459    2.539345
   5.297059    2.532797
   5.298660    2.526318
   5.300260    2.519907
   5.301860    2.513563
   5.303461    2.507286
   5.305061    2.501076
   5.306661    2.494931
   5.308262    2.488851
   5.309862    2.482836
   5.311462    2.476885
   5.313063    2.470998
   5.314663    2.465173
   5.316263    2.459411
   5.317864    2.453711
   5.319464    2.448073
   5.321064    2.442495
   5.322665    2.436978
   5.324265    2.431520
   5.325865    2.426122
   5.327465    2.420783
   5.329066    2.415502
   5.330666    2.410278
   5.332266    2.405112
   5.333867    2.400002
   5.335467    2.394949
   5.337067    2.389952
   5.338668    2.385010
   5.340268    2.380122
   5.341868    2.375289
   5.343469    2.370509
   5.345069    2.365783
   5.346669    2.361110
   5.348270    2.356488
   5.349870    2.351919
   5.351470    2.347401
   5.353071    2.342934
   5.354671    2.338517
   5.356271    2.334150
   5.357872    2.329833
   5.359472    2.325565
   5.361072    2.321345
   5.362673    2.317173
   5.364273    2.313049
   5.365873    2.308973
   5.367473    2.304943
   5.369074    2.300959
   5.370674    2.297021
   5.372274    2.293128
   5.373875    2.289281
   5.375475    2.285478
   5.377075    2.281719
   5.378676    2.278004
   5.380276    2.274333
   5.381876    2.270704
   5.383477    2.267117
   5.385077    2.263573
   5.386677    2.260070
   5.388278    2.256609
   5.389878    2.253188
   5.391478    2.249808
   5.393079    2.246467
   5.394679    2.243166
   5.396279    2.239905
   5.397880    2.236682
   5.399480    2.233498
   5.401080    2.230352
   5.402681    2.227243
   5.404281    2.224172
   5.405881    2.221138
   5.407481    2.218140
   5.409082    2.215178
   5.410682    2.212252
   5.412282    2.209362
   5.413883    2.206507
   5.415483    2.203686
   5.417083    2.200900
   5.418684    2.198148
   5.420284    2.195429
   5.421884    2.192744
   5.423485    2.190091
   5.425085    2.187471
   5.426685    2.184884
   5.428286    2.182328
   5.429886    2.179804
   5.431486    2.177311
   5.433087    2.174850
   5.434687    2.172418
   5.436287    2.170017
   5.437888    2.167646
   5.439488    2.165305
   5.441088    2.162993
   5.442689    2.160710
   5.444289    2.158455
   5.445889    2.156229
   5.447489    2.154031
   5.449090    2.151861
   5.450690    2.149719
   5.452290    2.147603
   5.453891    2.145514
   5.455491    2.143452
   5.457091    2.141416
   5.458692    2.139406
   5.460292    2.137422
   5.461892    2.135464
   5.463493    2.133530
   5.465093    2.131621
   5.466693    2.129737
   5.468294    2.127877
   5.469894    2.126042
   5.471494    2.124230
   5.473095    2.122441
   5.474695    2.120676
   5.476295    2.118934
   5.477896    2.117214
   5.479496    2.115517
   5.481096    2.113842
   5.482697    2.112189
   5.484297    2.110558
   5.485897    2.108948
   5.487497    2.107360
   5.489098    2.105792
   5.490698    2.104245
   5.492298    2.102719
   5.493899    2.101212
   5.495499    2.099726
   5.497099    2.098260
   5.498700    2.096813
   5.500300    2.095386
   5.501900    2.093977
   5.503501    2.092588
   5.505101    2.091217
   5.506701    2.089864
   5.508302    2.088530
   5.509902    2.087214
   5.511502    2.085915
   5.513103    2.084634
   5.514703    2.083371
   5.516303    2.082125
   5.517904    2.080895
   5.519504    2.079682
   5.521104    2.078486
   5.522705    2.077307
   5.524305    2.076143
   5.525905    2.074995
   5.527506    2.073863
   5.529106    2.072747
   5.530706    2.071646
   5.532306    2.070560
   5.533907    2.069490
   5.535507    2.068434
   5.537107    2.067392
   5.538708    2.066366
   5.540308    2.065353
   5.541908    2.064355
   5.543509    2.063370
   5.545109    2.062399
   5.546709    2.061442
   5.548310    2.060499
   5.549910    2.059568
   5.551510    2.058651
   5.553111    2.057746
   5.554711    2.056855
   5.556311    2.055976
   5.557912    2.055109
   5.559512    2.054255
   5.561112    2.053412
   5.562713    2.052582
   5.564313    2.051764
   5.565913    2.050957
   5.567514    2.050162
   5.569114    2.049378
   5.570714    2.048606
   5.572314    2.047844
   5.573915    2.047094
   5.575515    2.046354
   5.577115    2.045625
   5.578716    2.044906
   5.580316    2.044198
   5.581916    2.043500
   5.583517    2.042813
   5.585117    2.042135
   5.586717    2.041467
   5.588318    2.040809
   5.589918    2.040160
   5.591518    2.039521
   5.593119    2.038892
   5.594719    2.038271
   5.596319    2.037660
   5.597920    2.037058
   5.599520    2.036464
   5.601120    2.035880
   5.602721    2.035304
   5.604321    2.034736
   5.605921    2.034177
   5.607522    2.033626
   5.609122    2.033083
   5.610722    2.032549
   5.612322    2.032022
   5.613923    2.031504
   5.615523    2.030993
   5.617123    2.030489
   5.618724    2.029994
   5.620324    2.029505
   5.621924    2.029024
   5.623525    2.028551
   5.625125    2.028084
   5.626725    2.027625
   5.628326    2.027172
   5.629926    2.026726
   5.631526    2.026288
   5.633127    2.025855
   5.634727    2.025430
   5.636327    2.025010
   5.637928    2.024598
   5.639528    2.024191
   5.641128    2.023791
   5.642729    2.023397
   5.644329    2.023009
   5.645929    2.022627
   5.647530    2.022250
   5.649130    2.021880
   5.650730    2.021515
   5.652330    2.021156
   5.653931    2.020803
   5.655531    2.020455
   5.657131    2.020112
   5.658732    2.019775
   5.660332    2.019443
   5.661932    2.019116
   5.663533    2.018794
   5.665133    2.018477
   5.666733    2.018166
   5.668334    2.017859
   5.669934    2.017557
   5.671534    2.017259
   5.673135    2.016967
   5.674735    2.016679
   5.676335    2.016395
   5.677936    2.016116
   5.679536    2.015842
   5.681136    2.015571
   5.682737    2.015306
   5.684337    2.015044
   5.685937    2.014786
   5.687538    2.014533
   5.689138    2.014284
   5.690738    2.014038
   5.692338    2.013797
   5.693939    2.013559
   5.695539    2.013325
   5.697139    2.013095
   5.698740    2.012869
   5.700340    2.012646
   5.701940    2.012427
   5.703541    2.012212
   5.705141    2.012000
   5.706741    2.011791
   5.708342    2.011586
   5.709942    2.011384
   5.711542    2.011185
   5.713143    2.010990
   5.714743    2.010798
   5.716343    2.010609
   5.717944    2.010423
   5.719544    2.010240
   5.721144    2.010060
   5.722745    2.009883
   5.724345    2.009709
   5.725945    2.009538
   5.727546    2.009370
   5.729146    2.009204
   5.730746    2.009041
   5.732346    2.008881
   5.733947    2.008724
   5.735547    2.008569
   5.737147    2.008417
   5.738748    2.008267
   5.740348    2.008120
   5.741948    2.007975
   5.743549    2.007832
   5.745149    2.007692
   5.746749    2.007555
   5.748350    2.007419
   5.749950    2.007286
   5.751550    2.007156
   5.753151    2.007027
   5.754751    2.006900
   5.756351    2.006776
   5.757952    2.006654
   5.759552    2.006534
   5.761152    2.006416
   5.762753    2.006300
   5.764353    2.006185
   5.765953    2.006073
   5.767554    2.005963
   5.769154    2.005854
   5.770754    2.005748
   5.772354    2.005643
   5.773955    2.005540
   5.775555    2.005439
   5.777155    2.005340
   5.778756    2.005242
   5.780356    2.005146
   5.781956    2.005051
   5.783557    2.004959
   5.785157    2.004868
   5.786757    2.004778
   5.788358    2.004690
   5.789958    2.004603
   5.791558    2.004518
   5.793159    2.004435
   5.794759    2.004353
   5.796359    2.004272
   5.797960    2.004193
   5.799560    2.004115
   5.801160    2.004039
   5.802761    2.003963
   5.804361    2.003890
   5.805961    2.003817
   5.807562    2.003746
   5.809162    2.003676
   5.810762    2.003607
   5.812362    2.003539
   5.813963    2.003473
   5.815563    2.003408
   5.817163    2.003344
   5.818764    2.003281
   5.820364    2.003219
   5.821964    2.003158
   5.823565    2.003099
   5.825165    2.003040
   5.826765    2.002983
   5.828366    2.002926
   5.829966    2.002871
   5.831566    2.002816
   5.833167    2.002763
   5.834767    2.002710
   5.836367    2.002659
   5.837968    2.002608
   5.839568    2.002558
   5.841168    2.002509
   5.842769    2.002461
   5.844369    2.002414
   5.845969    2.002368
   5.847570    2.002323
   5.849170    2.002278
   5.850770    2.002234
   5.852370    2.002191
   5.853971    2.002149
   5.855571    2.002108
   5.857171    2.002067
   5.858772    2.002027
   5.860372    2.001988
   5.861972    2.001949
   5.863573    2.001912
   5.865173    2.001874
   5.866773    2.001838
   5.868374    2.001802
   5.869974    2.001767
   5.871574    2.001733
   5.873175    2.001699
   5.874775    2.001666
   5.876375    2.001633
   5.877976    2.001601
   5.879576    2.001570
   5.881176    2.001539
   5.882777    2.001509
   5.884377    2.001479
   5.885977    2.001450
   5.887578    2.001422
   5.889178    2.001394
   5.890778    2.001366
   5.892378    2.001339
   5.893979    2.001313
   5.895579    2.001287
   5.897179    2.001261
   5.898780    2.001236
   5.900380    2.001212
   5.901980    2.001188
   5.903581    2.001164
   5.905181    2.001141
   5.906781    2.001118
   5.908382    2.001096
   5.909982    2.001074
   5.911582    2.001052
   5.913183    2.001031
   5.914783    2.001011
   5.916383    2.000990
   5.917984    2.000970
   5.919584    2.000951
   5.921184    2.000932
   5.922785    2.000913
   5.924385    2.000895
   5.925985    2.000877
   5.927586    2.000859
   5.929186    2.000842
   5.930786    2.000825
   5.932386    2.000808
   5.933987    2.000791
   5.935587    2.000775
   5.937187    2.000760
   5.938788    2.000744
   5.940388    2.000729
   5.941988    2.000714
   5.943589    2.000700
   5.945189    2.000685
   5.946789    2.000671
   5.948390    2.000658
   5.949990    2.000644
   5.951590    2.000631
   5.953191    2.000618
   5.954791    2.000605
   5.956391    2.000593
   5.957992    2.000581
   5.959592    2.000569
   5.961192    2.000557
   5.962793    2.000545
   5.964393    2.000534
   5.965993    2.000523
   5.967594    2.000512
   5.969194    2.000502
   5.970794    2.000491
   5.972394    2.000481
   5.973995    2.000471
   5.975595    2.000461
   5.977195    2.000452
   5.978796    2.000442
   5.980396    2.000433
   5.981996    2.000424
   5.983597    2.000415
   5.985197    2.000406
   5.986797    2.000398
   5.988398    2.000389
   5.989998    2.000381
   5.991598    2.000373
   5.993199    2.000365
   5.994799    2.000358
   5.996399    2.000350
   5.998000    2.000343
   5.999600    2.000336
   6.001200    2.000329
   6.002801    2.000322
   6.004401    2.000315
   6.006001    2.000308
   6.007602    2.000302
   6.009202    2.000295
   6.010802    2.000289
   6.012402    2.000283
   6.014003    2.000277
   6.015603    2.000271
   6.017203    2.000265
   6.018804    2.000259
   6.020404    2.000254
   6.022004    2.000248
   6.023605    2.000243
   6.025205    2.000238
   6.026805    2.000233
   6.028406    2.000228
   6.030006    2.000223
   6.031606    2.000218
   6.033207    2.000213
   6.034807    2.000209
   6.036407    2.000204
   6.038008    2.000200
   6.039608    2.000196
   6.041208    2.000191
   6.042809    2.000187
   6.044409    2.000183
   6.046009    2.000179
   6.047610    2.000175
   6.049210    2.000171
   6.050810    2.000168
   6.052410    2.000164
   6.054011    2.000160
   6.055611    2.000157
   6.057211    2.000154
   6.058812    2.000150
   6.060412    2.000147
   6.062012    2.000144
   6.063613    2.000141
   6.065213    2.000137
   6.066813    2.000134
   6.068414    2.000131
   6.070014    2.000129
   6.071614    2.000126
   6.073215    2.000123
   6.074815    2.000120
   6.076415    2.000118
   6.078016    2.000115
   6.079616    2.000112
   6.081216    2.000110
   6.082817    2.000108
   6.084417    2.000105
   6.086017    2.000103
   6.087618    2.000100
   6.089218    2.000098
   6.090818    2.000096
   6.092418    2.000094
   6.094019    2.000092
   6.095619    2.000090
   6.097219    2.000088
   6.098820    2.000086
   6.100420    2.000084
   6.102020    2.000082
   6.103621    2.000080
   6.105221    2.000078
   6.106821    2.000077
   6.108422    2.000075
   6.110022    2.000073
   6.111622    2.000072
   6.113223    2.000070
   6.114823    2.000068
   6.116423    2.000067
   6.118024    2.000065
   6.119624    2.000064
   6.121224    2.000062
   6.122825    2.000061
   6.124425    2.000060
   6.126025    2.000058
   6.127626    2.000057
   6.129226    2.000056
   6.130826    2.000054
   6.132426    2.000053
   6.134027    2.000052
   6.135627    2.000051
   6.137227    2.000050
   6.138828    2.000048
   6.140428    2.000047
   6.142028    2.000046
   6.143629    2.000045
   6.145229    2.000044
   6.146829    2.000043
   6.148430    2.000042
   6.150030    2.000041
   6.151630    2.000040
   6.153231    2.000039
   6.154831    2.000038
   6.156431    2.000037
   6.158032    2.000037
   6.159632    2.000036
   6.161232    2.000035
   6.162833    2.000034
   6.164433    2.000033
   6.166033    2.000033
   6.167634    2.000032
   6.169234    2.000031
   6.170834    2.000030
   6.172434    2.000030
   6.174035    2.000029
   6.175635    2.000028
   6.177235    2.000028
   6.178836    2.000027
   6.180436    2.000026
   6.182036    2.000026
   6.183637    2.000025
   6.185237    2.000025
   6.186837    2.000024
   6.188438    2.000023
   6.190038    2.000023
   6.191638    2.000022
   6.193239    2.000022
   6.194839    2.000021
   6.196439    2.000021
   6.198040    2.000020
   6.199640    2.000020
   6.201240    2.000019
   6.202841    2.000019
   6.204441    2.000018
   6.206041    2.000018
   6.207642    2.000018
   6.209242    2.000017
   6.210842    2.000017
   6.212442    2.000016
   6.214043    2.000016
   6.215643    2.000016
   6.217243    2.000015
   6.218844    2.000015
   6.220444    2.000014
   6.222044    2.000014
   6.223645    2.000014
   6.225245    2.000013
   6.226845    2.000013
   6.228446    2.000013
   6.230046    2.000013
   6.231646    2.000012
   6.233247    2.000012
   6.234847    2.000012
   6.236447    2.000011
   6.238048    2.000011
   6.239648    2.000011
   6.241248    2.000011
   6.242849    2.000010
   6.244449    2.000010
   6.246049    2.000010
   6.247650    2.000010
   6.249250    2.000009
   6.250850    2.000009
   6.252450    2.000009
   6.254051    2.000009
   6.255651    2.000008
   6.257251    2.000008
   6.258852    2.000008
   6.260452    2.000008
   6.262052    2.000008
   6.263653    2.000007
   6.265253    2.000007
   6.266853    2.000007
   6.268454    2.000007
   6.270054    2.000007
   6.271654    2.000007
   6.273255    2.000006
   6.274855    2.000006
   6.276455    2.000006
   6.278056    2.000006
   6.279656    2.000006
   6.281256    2.000006
   6.282857    2.000006
   6.284457    2.000005
   6.286057    2.000005
   6.287658    2.000005
   6.289258    2.000005
   6.290858    2.000005
   6.292458    2.000005
   6.294059    2.000005
   6.295659    2.000005
   6.297259    2.000004
   6.298860    2.000004
   6.300460    2.000004
   6.302060    2.000004
   6.303661    2.000004
   6.305261    2.000004
   6.306861    2.000004
   6.308462    2.000004
   6.310062    2.000004
   6.311662    2.000004
   6.313263    2.000003
   6.314863    2.000003
   6.316463    2.000003
   6.318064    2.000003
   6.319664    2.000003
   6.321264    2.000003
   6.322865    2.000003
   6.324465    2.000003
   6.326065    2.000003
   6.327666    2.000003
   6.329266    2.000003
   6.330866    2.000003
   6.332466    2.000003
   6.334067    2.000002
   6.335667    2.000002
   6.337267    2.000002
   6.338868    2.000002
   6.340468    2.000002
   6.342068    2.000002
   6.343669    2.000002
   6.345269    2.000002
   6.346869    2.000002
   6.348470    2.000002
   6.350070    2.000002
   6.351670    2.000002
   6.353271    2.000002
   6.354871    2.000002
   6.356471    2.000002
   6.358072    2.000002
   6.359672    2.000002
   6.361272    2.000002
   6.362873    2.000002
   6.364473    2.000002
   6.366073    2.000001
   6.367674    2.000001
   6.369274    2.000001
   6.370874    2.000001
   6.372474    2.000001
   6.374075    2.000001
   6.375675    2.000001
   6.377275    2.000001
   6.378876    2.000001
   6.380476    2.000001
   6.382076    2.000001
   6.383677    2.000001
   6.385277    2.000001
   6.386877    2.000001
   6.388478    2.000001
   6.390078    2.000001
   6.391678    2.000001
   6.393279    2.000001
   6.394879    2.000001
   6.396479    2.000001
   6.398080    2.000001
   6.399680    2.000001
   6.401280    2.000001
   6.402881    2.000001
   6.404481    2.000001
   6.406081    2.000001
   6.407682    2.000001
   6.409282    2.000001
   6.410882    2.000001
   6.412482    2.000001
   6.414083    2.000001
   6.415683    2.000001
   6.417283    2.000001
   6.418884    2.000001
   6.420484    2.000001
   6.422084    2.000001
   6.423685    2.000001
   6.425285    2.000001
   6.426885    2.000001
   6.428486    2.000001
   6.430086    2.000001
   6.431686    2.000000
   6.433287    2.000000
   6.434887    2.000000
   6.436487    2.000000
   6.438088    2.000000
   6.439688    2.000000
   6.441288    2.000000
   6.442889    2.000000
   6.444489    2.000000
   6.446089    2.000000
   6.447690    2.000000
   6.449290    2.000000
   6.450890    2.000000
   6.452490    2.000000
   6.454091    2.000000
   6.455691    2.000000
   6.457291    2.000000
   6.458892    2.000000
   6.460492    2.000000
   6.462092    2.000000
   6.463693    2.000000
   6.465293    2.000000
   6.466893    2.000000
   6.468494    2.000000
   6.470094    2.000000
   6.471694    2.000000
   6.473295    2.000000
   6.474895    2.000000
   6.476495    2.000000
   6.478096    2.000000
   6.479696    2.000000
   6.481296    2.000000
   6.482897    2.000000
   6.484497    2.000000
   6.486097    2.000000
   6.487698    2.000000
   6.489298    2.000000
   6.490898    2.000000
   6.492498    2.000000
   6.494099    2.000000
   6.495699    2.000000
   6.497299    2.000000
   6.498900    2.000000
   6.500500    2.000000
   6.502100    2.000000
   6.503701    2.000000
   6.505301    2.000000
   6.506901    2.000000
   6.508502    2.000000
   6.510102    2.000000
   6.511702    2.000000
   6.513303    2.000000
   6.514903    2.000000
   6.516503    2.000000
   6.518104    2.000000
   6.519704    2.000000
   6.521304    2.000000
   6.522905    2.000000
   6.524505    2.000000
   6.526105    2.000000
   6.527706    2.000000
   6.529306    2.000000
   6.530906    2.000000
   6.532507    2.000000
   6.534107    2.000000
   6.535707    2.000000
   6.537307    2.000000
   6.538908    2.000000
   6.540508    2.000000
   6.542108    2.000000
   6.543709    2.000000
   6.545309    2.000000
   6.546909    2.000000
   6.548510    2.000000
   6.550110    2.000000
   6.551710    2.000000
   6.553311    2.000000
   6.554911    2.000000
   6.556511    2.000000
   6.558112    2.000000
   6.559712    2.000000
   6.561312    2.000000
   6.562913    2.000000
   6.564513    2.000000
   6.566113    2.000000
   6.567714    2.000000
   6.569314    2.000000
   6.570914    2.000000
   6.572515    2.000000
   6.574115    2.000000
   6.575715    2.000000
   6.577315    2.000000
   6.578916    2.000000
   6.580516    2.000000
   6.582116    2.000000
   6.583717    2.000000
   6.585317    2.000000
   6.586917    2.000000
   6.588518    2.000000
   6.590118    2.000000
   6.591718    2.000000
   6.593319    2.000000
   6.594919    2.000000
   6.596519    2.000000
   6.598120    2.000000
   6.599720    2.000000
   6.601320    2.000000
   6.602921    2.000000
   6.604521    2.000000
   6.606121    2.000000
   6.607722    2.000000
   6.609322    2.000000
   6.610922    2.000000
   6.612523    2.000000
   6.614123    2.000000
   6.615723    2.000000
   6.617323    2.000000
   6.618924    2.000000
   6.620524    2.000000
   6.622124    2.000000
   6.623725    2.000000
   6.625325    2.000000
   6.626925    2.000000
   6.628526    2.000000
   6.630126    2.000000
   6.631726    2.000000
   6.633327    2.000000
   6.634927    2.000000
   6.636527    2.000000
   6.638128    2.000000
   6.639728    2.000000
   6.641328    2.000000
   6.642929    2.000000
   6.644529    2.000000
   6.646129    2.000000
   6.647730    2.000000
   6.649330    2.000000
   6.650930    2.000000
   6.652531    2.000000
   6.654131    2.000000
   6.655731    2.000000
   6.657331    2.000000
   6.658932    2.000000
   6.660532    2.000000
   6.662132    2.000000
   6.663733    2.000000
   6.665333    2.000000
   6.666933    2.000000
   6.668534    2.000000
   6.670134    2.000000
   6.671734    2.000000
   6.673335    2.000000
   6.674935    2.000000
   6.676535    2.000000
   6.678136    2.000000
   6.679736    2.000000
   6.681336    2.000000
   6.682937    2.000000
   6.684537    2.000000
   6.686137    2.000000
   6.687738    2.000000
   6.689338    2.000000
   6.690938    2.000000
   6.692539    2.000000
   6.694139    2.000000
   6.695739    2.000000
   6.697339    2.000000
   6.698940    2.000000
   6.700540    2.000000
   6.702140    2.000000
   6.703741    2.000000
   6.705341    2.000000
   6.706941    2.000000
   6.708542    2.000000
   6.710142    2.000000
   6.711742    2.000000
   6.713343    2.000000
   6.714943    2.000000
   6.716543    2.000000
   6.718144    2.000000
   6.719744    2.000000
   6.721344    2.000000
   6.722945    2.000000
   6.724545    2.000000
   6.726145    2.000000
   6.727746    2.000000
   6.729346    2.000000
   6.730946    2.000000
   6.732547    2.000000
   6.734147    2.000000
   6.735747    2.000000
   6.737347    2.000000
   6.738948    2.000000
   6.740548    2.000000
   6.742148    2.000000
   6.743749    2.000000
   6.745349    2.000000
   6.746949    2.000000
   6.748550    2.000000
   6.750150    2.000000
   6.751750    2.000000
   6.753351    2.000000
   6.754951    2.000000
   6.756551    2.000000
   6.758152    2.000000
   6.759752    2.000000
   6.761352    2.000000
   6.762953    2.000000
   6.764553    2.000000
   6.766153    2.000000
   6.767754    2.000000
   6.769354    2.000000
   6.770954    2.000000
   6.772555    2.000000
   6.774155    2.000000
   6.775755    2.000000
   6.777355    2.000000
   6.778956    2.000000
   6.780556    2.000000
   6.782156    2.000000
   6.783757    2.000000
   6.785357    2.000000
   6.786957    2.000000
   6.788558    2.000000
   6.790158    2.000000
   6.791758    2.000000
   6.793359    2.000000
   6.794959    2.000000
   6.796559    2.000000
   6.798160    2.000000
   6.799760    2.000000
   6.801360    2.000000
   6.802961    2.000000
   6.804561    2.000000
   6.806161    2.000000
   6.807762    2.000000
   6.809362    2.000000
   6.810962    2.000000
   6.812563    2.000000
   6.814163    2.000000
   6.815763    2.000000
   6.817363    2.000000
   6.818964    2.000000
   6.820564    2.000000
   6.822164    2.000000
   6.823765    2.000000
   6.825365    2.000000
   6.826965    2.000000
   6.828566    2.000000
   6.830166    2.000000
   6.831766    2.000000
   6.833367    2.000000
   6.834967    2.000000
   6.836567    2.000000
   6.838168    2.000000
   6.839768    2.000000
   6.841368    2.000000
   6.842969    2.000000
   6.844569    2.000000
   6.846169    2.000000
   6.847770    2.000000
   6.849370    2.000000
   6.850970    2.000000
   6.852571    2.000000
   6.854171    2.000000
   6.855771    2.000000
   6.857371    2.000000
   6.858972    2.000000
   6.860572    2.000000
   6.862172    2.000000
   6.863773    2.000000
   6.865373    2.000000
   6.866973    2.000000
   6.868574    2.000000
   6.870174    2.000000
   6.871774    2.000000
   6.873375    2.000000
   6.874975    2.000000
   6.876575    2.000000
   6.878176    2.000000
   6.879776    2.000000
   6.881376    2.000000
   6.882977    2.000000
   6.884577    2.000000
   6.886177    2.000000
   6.887778    2.000000
   6.889378    2.000000
   6.890978    2.000000
   6.892579    2.000000
   6.894179    2.000000
   6.895779    2.000000
   6.897379    2.000000
   6.898980    2.000000
   6.900580    2.000000
   6.902180    2.000000
   6.903781    2.000000
   6.905381    2.000000
   6.906981    2.000000
   6.908582    2.000000
   6.910182    2.000000
   6.911782    2.000000
   6.913383    2.000000
   6.914983    2.000000
   6.916583    2.000000
   6.918184    2.000000
   6.919784    2.000000
   6.921384    2.000000
   6.922985    2.000000
   6.924585    2.000000
   6.926185    2.000000
   6.927786    2.000000
   6.929386    2.000000
   6.930986    2.000000
   6.932587    2.000000
   6.934187    2.000000
   6.935787    2.000000
   6.937387    2.000000
   6.938988    2.000000
   6.940588    2.000000
   6.942188    2.000000
   6.943789    2.000000
   6.945389    2.000000
   6.946989    2.000000
   6.948590    2.000000
   6.950190    2.000000
   6.951790    2.000000
   6.953391    2.000000
   6.954991    2.000000
   6.956591    2.000000
   6.958192    2.000000
   6.959792    2.000000
   6.961392    2.000000
   6.962993    2.000000
   6.964593    2.000000
   6.966193    2.000000
   6.967794    2.000000
   6.969394    2.000000
   6.970994    2.000000
   6.972595    2.000000
   6.974195    2.000000
   6.975795    2.000000
   6.977395    2.000000
   6.978996    2.000000
   6.980596    2.000000
   6.982196    2.000000
   6.983797    2.000000
   6.985397    2.000000
   6.986997    2.000000
   6.988598    2.000000
   6.990198    2.000000
   6.991798    2.000000
   6.993399    2.000000
   6.994999    2.000000
   6.996599    2.000000
   6.998200    2.000000
   6.999800    2.000000
   7.001400    2.000000
   7.003001    2.000000
   7.004601    2.000000
   7.006201    2.000000
   7.007802    2.000000
   7.009402    2.000000
   7.011002    2.000000
   7.012603    2.000000
   7.014203    2.000000
   7.015803    2.000000
   7.017403    2.000000
   7.019004    2.000000
   7.020604    2.000000
   7.022204    2.000000
   7.023805    2.000000
   7.025405    2.000000
   7.027005    2.000000
   7.028606    2.000000
   7.030206    2.000000
   7.031806    2.000000
   7.033407    2.000000
   7.035007    2.000000
   7.036607    2.000000
   7.038208    2.000000
   7.039808    2.000000
   7.041408    2.000000
   7.043009    2.000000
   7.044609    2.000000
   7.046209    2.000000
   7.047810    2.000000
   7.049410    2.000000
   7.051010    2.000000
   7.052611    2.000000
   7.054211    2.000000
   7.055811    2.000000
   7.057411    2.000000
   7.059012    2.000000
   7.060612    2.000000
   7.062212    2.000000
   7.063813    2.000000
   7.065413    2.000000
   7.067013    2.000000
   7.068614    2.000000
   7.070214    2.000000
   7.071814    2.000000
   7.073415    2.000000
   7.075015    2.000000
   7.076615    2.000000
   7.078216    2.000000
   7.079816    2.000000
   7.081416    2.000000
   7.083017    2.000000
   7.084617    2.000000
   7.086217    2.000000
   7.087818    2.000000
   7.089418    2.000000
   7.091018    2.000000
   7.092619    2.000000
   7.094219    2.000000
   7.095819    2.000000
   7.097419    2.000000
   7.099020    2.000000
   7.100620    2.000000
   7.102220    2.000000
   7.103821    2.000000
   7.105421    2.000000
   7.107021    2.000000
   7.108622    2.000000
   7.110222    2.000000
   7.111822    2.000000
   7.113423    2.000000
   7.115023    2.000000
   7.116623    2.000000
   7.118224    2.000000
   7.119824    2.000000
   7.121424    2.000000
   7.123025    2.000000
   7.124625    2.000000
   7.126225    2.000000
   7.127826    2.000000
   7.129426    2.000000
   7.131026    2.000000
   7.132627    2.000000
   7.134227    2.000000
   7.135827    2.000000
   7.137427    2.000000
   7.139028    2.000000
   7.140628    2.000000
   7.142228    2.000000
   7.143829    2.000000
   7.145429    2.000000
   7.147029    2.000000
   7.148630    2.000000
   7.150230    2.000000
   7.151830    2.000000
   7.153431    2.000000
   7.155031    2.000000
   7.156631    2.000000
   7.158232    2.000000
   7.159832    2.000000
   7.161432    2.000000
   7.163033    2.000000
   7.164633    2.000000
   7.166233    2.000000
   7.167834    2.000000
   7.169434    2.000000
   7.171034    2.000000
   7.172635    2.000000
   7.174235    2.000000
   7.175835    2.000000
   7.177435    2.000000
   7.179036    2.000000
   7.180636    2.000000
   7.182236    2.000000
   7.183837    2.000000
   7.185437    2.000000
   7.187037    2.000000
   7.188638    2.000000
   7.190238    2.000000
   7.191838    2.000000
   7.193439    2.000000
   7.195039    2.000000
   7.196639    2.000000
   7.198240    2.000000
   7.199840    2.000000
   7.201440    2.000000
   7.203041    2.000000
   7.204641    2.000000
   7.206241    2.000000
   7.207842    2.000000
   7.209442    2.000000
   7.211042    2.000000
   7.212643    2.000000
   7.214243    2.000000
   7.215843    2.000000
   7.217443    2.000000
   7.219044    2.000000
   7.220644    2.000000
   7.222244    2.000000
   7.223845    2.000000
   7.225445    2.000000
   7.227045    2.000000
   7.228646    2.000000
   7.230246    2.000000
   7.231846    2.000000
   7.233447    2.000000
   7.235047    2.000000
   7.236647    2.000000
   7.238248    2.000000
   7.239848    2.000000
   7.241448    2.000000
   7.243049    2.000000
   7.244649    2.000000
   7.246249    2.000000
   7.247850    2.000000
   7.249450    2.000000
   7.251050    2.000000
   7.252651    2.000000
   7.254251    2.000000
   7.255851    2.000000
   7.257451    2.000000
   7.259052    2.000000
   7.260652    2.000000
   7.262252    2.000000
   7.263853    2.000000
   7.265453    2.000000
   7.267053    2.000000
   7.268654    2.000000
   7.270254    2.000000
   7.271854    2.000000
   7.273455    2.000000
   7.275055    2.000000
   7.276655    2.000000
   7.278256    2.000000
   7.279856    2.000000
   7.281456    2.000000
   7.283057    2.000000
   7.284657    2.000000
   7.286257    2.000000
   7.287858    2.000000
   7.289458    2.000000
   7.291058    2.000000
   7.292659    2.000000
   7.294259    2.000000
   7.295859    2.000000
   7.297459    2.000000
   7.299060    2.000000
   7.300660    2.000000
   7.302260    2.000000
   7.303861    2.000000
   7.305461    2.000000
   7.307061    2.000000
   7.308662    2.000000
   7.310262    2.000000
   7.311862    2.000000
   7.313463    2.000000
   7.315063    2.000000
   7.316663    2.000000
   7.318264    2.000000
   7.319864    2.000000
   7.321464    2.000000
   7.323065    2.000000
   7.324665    2.000000
   7.326265    2.000000
   7.327866    2.000000
   7.329466    2.000000
   7.331066    2.000000
   7.332667    2.000000
   7.334267    2.000000
   7.335867    2.000000
   7.337467    2.000000
   7.339068    2.000000
   7.340668    2.000000
   7.342268    2.000000
   7.343869    2.000000
   7.345469    2.000000
   7.347069    2.000000
   7.348670    2.000000
   7.350270    2.000000
   7.351870    2.000000
   7.353471    2.000000
   7.355071    2.000000
   7.356671    2.000000
   7.358272    2.000000
   7.359872    2.000000
   7.361472    2.000000
   7.363073    2.000000
   7.364673    2.000000
   7.366273    2.000000
   7.367874    2.000000
   7.369474    2.000000
   7.371074    2.000000
   7.372675    2.000000
   7.374275    2.000000
   7.375875    2.000000
   7.377475    2.000000
   7.379076    2.000000
   7.380676    2.000000
   7.382276    2.000000
   7.383877    2.000000
   7.385477    2.000000
   7.387077    2.000000
   7.388678    2.000000
   7.390278    2.000000
   7.391878    2.000000
   7.393479    2.000000
   7.395079    2.000000
   7.396679    2.000000
   7.398280    2.000000
   7.399880    2.000000
   7.401480    2.000000
   7.403081    2.000000
   7.404681    2.000000
   7.406281    2.000000
   7.407882    2.000000
   7.409482    2.000000
   7.411082    2.000000
   7.412683    2.000000
   7.414283    2.000000
   7.415883    2.000000
   7.417483    2.000000
   7.419084    2.000000
   7.420684    2.000000
   7.422284    2.000000
   7.423885    2.000000
   7.425485    2.000000
   7.427085    2.000000
   7.428686    2.000000
   7.430286    2.000000
   7.431886    2.000000
   7.433487    2.000000
   7.435087    2.000000
   7.436687    2.000000
   7.438288    2.000000
   7.439888    2.000000
   7.441488    2.000000
   7.443089    2.000000
   7.444689    2.000000
   7.446289    2.000000
   7.447890    2.000000
   7.449490    2.000000
   7.451090    2.000000
   7.452691    2.000000
   7.454291    2.000000
   7.455891    2.000000
   7.457491    2.000000
   7.459092    2.000000
   7.460692    2.000000
   7.462292    2.000000
   7.463893    2.000000
   7.465493    2.000000
   7.467093    2.000000
   7.468694    2.000000
   7.470294    2.000000
   7.471894    2.000000
   7.473495    2.000000
   7.475095    2.000000
   7.476695    2.000000
   7.478296    2.000000
   7.479896    2.000000
   7.481496    2.000000
   7.483097    2.000000
   7.484697    2.000000
   7.486297    2.000000
   7.487898    2.000000
   7.489498    2.000000
   7.491098    2.000000
   7.492699    2.000000
   7.494299    2.000000
   7.495899    2.000000
   7.497499    2.000000
   7.499100    2.000000
   7.500700    2.000000
   7.502300    2.000000
   7.503901    2.000000
   7.505501    2.000000
   7.507101    2.000000
   7.508702    2.000000
   7.510302    2.000000
   7.511902    2.000000
   7.513503    2.000000
   7.515103    2.000000
   7.516703    2.000000
   7.518304    2.000000
   7.519904    2.000000
   7.521504    2.000000
   7.523105    2.000000
   7.524705    2.000000
   7.526305    2.000000
   7.527906    2.000000
   7.529506    2.000000
   7.531106    2.000000
   7.532707    2.000000
   7.534307    2.000000
   7.535907    2.000000
   7.537508    2.000000
   7.539108    2.000000
   7.540708    2.000000
   7.542308    2.000000
   7.543909    2.000000
   7.545509    2.000000
   7.547109    2.000000
   7.548710    2.000000
   7.550310    2.000000
   7.551910    2.000000
   7.553511    2.000000
   7.555111    2.000000
   7.556711    2.000000
   7.558312    2.000000
   7.559912    2.000000
   7.561512    2.000000
   7.563113    2.000000
   7.564713    2.000000
   7.566313    2.000000
   7.567914    2.000000
   7.569514    2.000000
   7.571114    2.000000
   7.572715    2.000000
   7.574315    2.000000
   7.575915    2.000000
   7.577516    2.000000
   7.579116    2.000000
   7.580716    2.000000
   7.582316    2.000000
   7.583917    2.000000
   7.585517    2.000000
   7.587117    2.000000
   7.588718    2.000000
   7.590318    2.000000
   7.591918    2.000000
   7.593519    2.000000
   7.595119    2.000000
   7.596719    2.000000
   7.598320    2.000000
   7.599920    2.000000
   7.601520    2.000000
   7.603121    2.000000
   7.604721    2.000000
   7.606321    2.000000
   7.607922    2.000000
   7.609522    2.000000
   7.611122    2.000000
   7.612723    2.000000
   7.614323    2.000000
   7.615923    2.000000
   7.617524    2.000000
   7.619124    2.000000
   7.620724    2.000000
   7.622324    2.000000
   7.623925    2.000000
   7.625525    2.000000
   7.627125    2.000000
   7.628726    2.000000
   7.630326    2.000000
   7.631926    2.000000
   7.633527    2.000000
   7.635127    2.000000
   7.636727    2.000000
   7.638328    2.000000
   7.639928    2.000000
   7.641528    2.000000
   7.643129    2.000000
   7.644729    2.000000
   7.646329    2.000000
   7.647930    2.000000
   7.649530    2.000000
   7.651130    2.000000
   7.652731    2.000000
   7.654331    2.000000
   7.655931    2.000000
   7.657532    2.000000
   7.659132    2.000000
   7.660732    2.000000
   7.662332    2.000000
   7.663933    2.000000
   7.665533    2.000000
   7.667133    2.000000
   7.668734    2.000000
   7.670334    2.000000
   7.671934    2.000000
   7.673535    2.000000
   7.675135    2.000000
   7.676735    2.000000
   7.678336    2.000000
   7.679936    2.000000
   7.681536    2.000000
   7.683137    2.000000
   7.684737    2.000000
   7.686337    2.000000
   7.687938    2.000000
   7.689538    2.000000
   7.691138    2.000000
   7.692739    2.000000
   7.694339    2.000000
   7.695939    2.000000
   7.697540    2.000000
   7.699140    2.000000
   7.700740    2.000000
   7.702340    2.000000
   7.703941    2.000000
   7.705541    2.000000
   7.707141    2.000000
   7.708742    2.000000
   7.710342    2.000000
   7.711942    2.000000
   7.713543    2.000000
   7.715143    2.000000
   7.716743    2.000000
   7.718344    2.000000
   7.719944    2.000000
   7.721544    2.000000
   7.723145    2.000000
   7.724745    2.000000
   7.726345    2.000000
   7.727946    2.000000
   7.729546    2.000000
   7.731146    2.000000
   7.732747    2.000000
   7.734347    2.000000
   7.735947    2.000000
   7.737548    2.000000
   7.739148    2.000000
   7.740748    2.000000
   7.742348    2.000000
   7.743949    2.000000
   7.745549    2.000000
   7.747149    2.000000
   7.748750    2.000000
   7.750350    2.000000
   7.751950    2.000000
   7.753551    2.000000
   7.755151    2.000000
   7.756751    2.000000
   7.758352    2.000000
   7.759952    2.000000
   7.761552    2.000000
   7.763153    2.000000
   7.764753    2.000000
   7.766353    2.000000
   7.767954    2.000000
   7.769554    2.000000
   7.771154    2.000000
   7.772755    2.000000
   7.774355    2.000000
   7.775955    2.000000
   7.777556    2.000000
   7.779156    2.000000
   7.780756    2.000000
   7.782356    2.000000
   7.783957    2.000000
   7.785557    2.000000
   7.787157    2.000000
   7.788758    2.000000
   7.790358    2.000000
   7.791958    2.000000
   7.793559    2.000000
   7.795159    2.000000
   7.796759    2.000000
   7.798360    2.000000
   7.799960    2.000000
   7.801560    2.000000
   7.803161    2.000000
   7.804761    2.000000
   7.806361    2.000000
   7.807962    2.000000
   7.809562    2.000000
   7.811162    2.000000
   7.812763    2.000000
   7.814363    2.000000
   7.815963    2.000000
   7.817564    2.000000
   7.819164    2.000000
   7.820764    2.000000
   7.822364    2.000000
   7.823965    2.000000
   7.825565    2.000000
   7.827165    2.000000
   7.828766    2.000000
   7.830366    2.000000
   7.831966    2.000000
   7.833567    2.000000
   7.835167    2.000000
   7.836767    2.000000
   7.838368    2.000000
   7.839968    2.000000
   7.841568    2.000000
   7.843169    2.000000
   7.844769    2.000000
   7.846369    2.000000
   7.847970    2.000000
   7.849570    2.000000
   7.851170    2.000000
   7.852771    2.000000
   7.854371    2.000000
   7.855971    2.000000
   7.857572    2.000000
   7.859172    2.000000
   7.860772    2.000000
   7.862372    2.000000
   7.863973    2.000000
   7.865573    2.000000
   7.867173    2.000000
   7.868774    2.000000
   7.870374    2.000000
   7.871974    2.000000
   7.873575    2.000000
   7.875175    2.000000
   7.876775    2.000000
   7.878376    2.000000
   7.879976    2.000000
   7.881576    2.000000
   7.883177    2.000000
   7.884777    2.000000
   7.886377    2.000000
   7.887978    2.000000
   7.889578    2.000000
   7.891178    2.000000
   7.892779    2.000000
   7.894379    2.000000
   7.895979    2.000000
   7.897580    2.000000
   7.899180    2.000000
   7.900780    2.000000
   7.902380    2.000000
   7.903981    2.000000
   7.905581    2.000000
   7.907181    2.000000
   7.908782    2.000000
   7.910382    2.000000
   7.911982    2.000000
   7.913583    2.000000
   7.915183    2.000000
   7.916783    2.000000
   7.918384    2.000000
   7.919984    2.000000
   7.921584    2.000000
   7.923185    2.000000
   7.924785    2.000000
   7.926385    2.000000
   7.927986    2.000000
   7.929586    2.000000
   7.931186    2.000000
   7.932787    2.000000
   7.934387    2.000000
   7.935987    2.000000
   7.937588    2.000000
   7.939188    2.000000
   7.940788    2.000000
   7.942388    2.000000
   7.943989    2.000000
   7.945589    2.000000
   7.947189    2.000000
   7.948790    2.000000
   7.950390    2.000000
   7.951990    2.000000
   7.953591    2.000000
   7.955191    2.000000
   7.956791    2.000000
   7.958392    2.000000
   7.959992    2.000000
   7.961592    2.000000
   7.963193    2.000000
   7.964793    2.000000
   7.966393    2.000000
   7.967994    2.000000
   7.969594    2.000000
   7.971194    2.000000
   7.972795    2.000000
   7.974395    2.000000
   7.975995    2.000000
   7.977596    2.000000
   7.979196    2.000000
   7.980796    2.000000
   7.982396    2.000000
   7.983997    2.000000
   7.985597    2.000000
   7.987197    2.000000
   7.988798    2.000000
   7.990398    2.000000
   7.991998    2.000000
   7.993599    2.000000
   7.995199    2.000000
   7.996799    2.000000
   7.998400    2.000000
   8.000000    2.000000